['LOG', 'COUNTER', 'INTERPOLATED', 'RAW_CQ', 'AF3', 'F7', 'F3', 'FC5', 'T7', 'P7', 'O1', 'O2', 'P8', 'T8', 'FC6', 'F4', 'F8', 'AF4', 'TIMESTAMP', 'ES_TIMESTAMP', 'FUNC_ID', 'FUNC_VALUE', 'MARKER', 'SYNC_SIGNAL']
2016-10-05T18:34:59.978000 , 53.0 , 0.0 , 0.0 , 4316.92307692 , 4310.25641026 , 4305.64102564 , 4324.1025641 , 4193.33333333 , 4186.15384615 , 4178.46153846 , 4195.8974359 , 4195.38461538 , 4203.07692308 , 4228.71794872 , 4953.84615385 , 4098.46153846 , 4207.17948718 , 0.36190409567 , 0.0 , 0.0 , 0.0 , 0.0 , 0.0 , 

2016-10-05T18:34:59.997000 , 54.0 , 0.0 , 0.0 , 4340.51282051 , 4330.25641026 , 4328.20512821 , 4344.1025641 , 4201.53846154 , 4193.84615385 , 4187.69230769 , 4195.8974359 , 4195.38461538 , 4200.0 , 4220.51282051 , 4952.82051282 , 4073.84615385 , 4204.1025641 , 0.369220259497 , 0.0 , 0.0 , 0.0 , 0.0 , 0.0 , 

2016-10-05T18:35:00.025000 , 55.0 , 0.0 , 0.0 , 4321.02564103 , 4304.1025641 , 4329.74358974 , 4338.46153846 , 4197.43589744 , 4191.79487179 , 4192.82051282 , 4195.38461538 , 4195.8974359 , 4195.38461538 , 4220.0 , 4948.71794872 , 4069.74358974 , 4200.0 , 0.376536423323 , 0.0 , 0.0 , 0.0 , 0.0 , 0.0 , 

2016-10-05T18:35:00.046000 , 56.0 , 0.0 , 0.0 , 4312.82051282 , 4302.56410256 , 4339.48717949 , 4335.38461538 , 4195.38461538 , 4191.28205128 , 4193.84615385 , 4195.38461538 , 4196.41025641 , 4196.92307692 , 4211.79487179 , 4952.82051282 , 4053.84615385 , 4201.53846154 , 0.38385258715 , 0.0 , 0.0 , 0.0 , 0.0 , 0.0 , 

2016-10-05T18:35:00.067000 , 57.0 , 0.0 , 0.0 , 4308.71794872 , 4307.17948718 , 4332.82051282 , 4326.66666667 , 4194.87179487 , 4190.76923077 , 4185.64102564 , 4196.92307692 , 4197.43589744 , 4201.53846154 , 4214.35897436 , 4952.82051282 , 4063.07692308 , 4203.07692308 , 0.391168750977 , 0.0 , 0.0 , 0.0 , 0.0 , 0.0 , 

2016-10-05T18:35:00.084000 , 58.0 , 0.0 , 0.0 , 4308.71794872 , 4303.58974359 , 4327.69230769 , 4338.46153846 , 4196.92307692 , 4191.28205128 , 4186.15384615 , 4196.92307692 , 4197.94871795 , 4200.51282051 , 4206.66666667 , 4953.84615385 , 4071.79487179 , 4200.0 , 0.398484914804 , 0.0 , 0.0 , 0.0 , 0.0 , 0.0 , 

2016-10-05T18:35:00.089000 , 59.0 , 0.0 , 0.0 , 4295.38461538 , 4289.23076923 , 4317.94871795 , 4332.30769231 , 4191.79487179 , 4187.17948718 , 4187.17948718 , 4194.87179487 , 4196.92307692 , 4198.46153846 , 4207.69230769 , 4955.38461538 , 4076.41025641 , 4200.51282051 , 0.405801078631 , 0.0 , 0.0 , 0.0 , 0.0 , 0.0 , 

2016-10-05T18:35:00.089000 , 60.0 , 0.0 , 0.0 , 4288.20512821 , 4287.17948718 , 4296.92307692 , 4314.87179487 , 4187.69230769 , 4188.71794872 , 4189.23076923 , 4193.84615385 , 4195.8974359 , 4199.48717949 , 4217.94871795 , 4954.87179487 , 4100.51282051 , 4202.05128205 , 0.413117242457 , 0.0 , 0.0 , 0.0 , 0.0 , 0.0 , 

2016-10-05T18:35:00.089000 , 61.0 , 0.0 , 0.0 , 4291.28205128 , 4287.69230769 , 4284.1025641 , 4310.76923077 , 4188.71794872 , 4194.87179487 , 4197.43589744 , 4191.79487179 , 4195.8974359 , 4195.38461538 , 4214.87179487 , 4954.35897436 , 4120.51282051 , 4200.0 , 0.420433406284 , 0.0 , 0.0 , 0.0 , 0.0 , 0.0 , 

2016-10-05T18:35:00.090000 , 62.0 , 0.0 , 0.0 , 4288.71794872 , 4287.17948718 , 4291.28205128 , 4317.94871795 , 4189.74358974 , 4195.38461538 , 4200.0 , 4192.82051282 , 4195.8974359 , 4193.33333333 , 4221.53846154 , 4951.28205128 , 4111.28205128 , 4202.56410256 , 0.427749570111 , 0.0 , 0.0 , 0.0 , 0.0 , 0.0 , 

2016-10-05T18:35:00.090000 , 63.0 , 0.0 , 0.0 , 4295.8974359 , 4302.05128205 , 4303.58974359 , 4327.17948718 , 4191.79487179 , 4199.48717949 , 4202.05128205 , 4193.33333333 , 4191.79487179 , 4192.30769231 , 4225.64102564 , 4952.82051282 , 4093.33333333 , 4205.64102564 , 0.435065733938 , 0.0 , 0.0 , 0.0 , 0.0 , 0.0 , 

2016-10-05T18:35:00.090000 , 64.0 , 0.0 , 0.0 , 4286.15384615 , 4293.33333333 , 4281.53846154 , 4303.07692308 , 4187.17948718 , 4192.30769231 , 4192.82051282 , 4196.92307692 , 4194.35897436 , 4197.94871795 , 4238.97435897 , 4946.66666667 , 4121.53846154 , 4208.20512821 , 0.442381897765 , 0.0 , 0.0 , 0.0 , 0.0 , 0.0 , 

2016-10-05T18:35:00.090000 , 65.0 , 0.0 , 0.0 , 4304.1025641 , 4304.1025641 , 4301.02564103 , 4318.46153846 , 4198.97435897 , 4200.0 , 4199.48717949 , 4196.41025641 , 4195.8974359 , 4197.43589744 , 4221.53846154 , 4950.76923077 , 4106.15384615 , 4208.20512821 , 0.449698061591 , 0.0 , 0.0 , 0.0 , 0.0 , 0.0 , 

2016-10-05T18:35:00.091000 , 66.0 , 0.0 , 0.0 , 4305.12820513 , 4299.48717949 , 4307.69230769 , 4329.23076923 , 4196.92307692 , 4193.84615385 , 4194.87179487 , 4196.92307692 , 4194.87179487 , 4198.46153846 , 4217.94871795 , 4951.79487179 , 4092.30769231 , 4205.12820513 , 0.457014225418 , 0.0 , 0.0 , 0.0 , 0.0 , 0.0 , 

2016-10-05T18:35:00.091000 , 67.0 , 0.0 , 0.0 , 4324.61538462 , 4315.8974359 , 4323.58974359 , 4347.69230769 , 4195.8974359 , 4193.33333333 , 4192.82051282 , 4195.38461538 , 4193.33333333 , 4197.43589744 , 4210.76923077 , 4952.30769231 , 4073.33333333 , 4196.92307692 , 0.464330389245 , 0.0 , 0.0 , 0.0 , 0.0 , 0.0 , 

2016-10-05T18:35:00.091000 , 68.0 , 0.0 , 0.0 , 4315.8974359 , 4306.66666667 , 4323.07692308 , 4327.17948718 , 4189.74358974 , 4183.07692308 , 4181.53846154 , 4195.8974359 , 4196.41025641 , 4200.51282051 , 4226.15384615 , 4944.61538462 , 4079.48717949 , 4198.97435897 , 0.471646553072 , 0.0 , 0.0 , 0.0 , 0.0 , 0.0 , 

2016-10-05T18:35:00.091000 , 69.0 , 0.0 , 0.0 , 4327.17948718 , 4316.92307692 , 4350.76923077 , 4347.17948718 , 4197.94871795 , 4190.76923077 , 4188.71794872 , 4193.33333333 , 4195.38461538 , 4200.0 , 4215.38461538 , 4951.79487179 , 4054.35897436 , 4203.58974359 , 0.478962716899 , 0.0 , 0.0 , 0.0 , 0.0 , 0.0 , 

2016-10-05T18:35:00.091000 , 70.0 , 0.0 , 0.0 , 4302.56410256 , 4292.30769231 , 4332.30769231 , 4328.20512821 , 4194.87179487 , 4190.25641026 , 4188.20512821 , 4196.41025641 , 4195.38461538 , 4202.05128205 , 4218.46153846 , 4948.20512821 , 4065.64102564 , 4203.07692308 , 0.486278880725 , 0.0 , 0.0 , 0.0 , 0.0 , 0.0 , 

2016-10-05T18:35:00.091000 , 71.0 , 0.0 , 0.0 , 4297.94871795 , 4288.71794872 , 4331.28205128 , 4315.8974359 , 4190.25641026 , 4192.82051282 , 4189.23076923 , 4198.46153846 , 4196.41025641 , 4198.46153846 , 4203.58974359 , 4948.71794872 , 4052.30769231 , 4195.8974359 , 0.493595044552 , 0.0 , 0.0 , 0.0 , 0.0 , 0.0 , 

2016-10-05T18:35:00.092000 , 72.0 , 0.0 , 0.0 , 4281.02564103 , 4270.76923077 , 4311.79487179 , 4296.41025641 , 4179.48717949 , 4180.51282051 , 4175.8974359 , 4197.43589744 , 4198.97435897 , 4198.97435897 , 4209.23076923 , 4950.76923077 , 4070.25641026 , 4198.46153846 , 0.500911208379 , 0.0 , 0.0 , 0.0 , 0.0 , 0.0 , 

2016-10-05T18:35:00.092000 , 73.0 , 0.0 , 0.0 , 4286.15384615 , 4280.0 , 4301.53846154 , 4305.12820513 , 4191.79487179 , 4192.82051282 , 4187.17948718 , 4196.41025641 , 4197.43589744 , 4198.46153846 , 4208.20512821 , 4956.92307692 , 4085.64102564 , 4202.05128205 , 0.508227372206 , 0.0 , 0.0 , 0.0 , 0.0 , 0.0 , 

2016-10-05T18:35:00.092000 , 74.0 , 0.0 , 0.0 , 4275.8974359 , 4275.38461538 , 4284.61538462 , 4293.33333333 , 4195.8974359 , 4194.35897436 , 4191.79487179 , 4197.94871795 , 4195.8974359 , 4196.92307692 , 4212.30769231 , 4955.38461538 , 4099.48717949 , 4202.05128205 , 0.515543536033 , 0.0 , 0.0 , 0.0 , 0.0 , 0.0 , 

2016-10-05T18:35:00.092000 , 75.0 , 0.0 , 0.0 , 4285.64102564 , 4278.97435897 , 4296.41025641 , 4310.25641026 , 4186.66666667 , 4181.02564103 , 4186.15384615 , 4196.41025641 , 4196.92307692 , 4196.92307692 , 4212.30769231 , 4954.35897436 , 4090.25641026 , 4200.51282051 , 0.522859699859 , 0.0 , 0.0 , 0.0 , 0.0 , 0.0 , 

2016-10-05T18:35:00.092000 , 76.0 , 0.0 , 0.0 , 4285.12820513 , 4279.48717949 , 4283.58974359 , 4307.69230769 , 4183.07692308 , 4178.46153846 , 4181.53846154 , 4194.87179487 , 4198.46153846 , 4200.0 , 4230.25641026 , 4949.23076923 , 4111.79487179 , 4203.58974359 , 0.530175863686 , 0.0 , 0.0 , 0.0 , 0.0 , 0.0 , 

2016-10-05T18:35:00.092000 , 77.0 , 0.0 , 0.0 , 4292.30769231 , 4302.05128205 , 4288.20512821 , 4311.79487179 , 4196.92307692 , 4196.41025641 , 4192.82051282 , 4195.8974359 , 4194.87179487 , 4196.92307692 , 4233.33333333 , 4950.76923077 , 4112.30769231 , 4203.58974359 , 0.537492027513 , 0.0 , 0.0 , 0.0 , 0.0 , 0.0 , 

2016-10-05T18:35:00.092000 , 78.0 , 0.0 , 0.0 , 4312.30769231 , 4321.02564103 , 4317.43589744 , 4337.43589744 , 4202.05128205 , 4200.0 , 4197.43589744 , 4196.41025641 , 4193.33333333 , 4195.38461538 , 4221.53846154 , 4953.84615385 , 4083.07692308 , 4200.51282051 , 0.54480819134 , 0.0 , 0.0 , 0.0 , 0.0 , 0.0 , 

2016-10-05T18:35:00.093000 , 79.0 , 0.0 , 0.0 , 4329.23076923 , 4319.48717949 , 4331.28205128 , 4357.94871795 , 4194.87179487 , 4190.25641026 , 4192.82051282 , 4195.8974359 , 4197.94871795 , 4199.48717949 , 4225.12820513 , 4949.74358974 , 4077.94871795 , 4203.58974359 , 0.552124355166 , 0.0 , 0.0 , 0.0 , 0.0 , 0.0 , 

2016-10-05T18:35:00.093000 , 80.0 , 0.0 , 0.0 , 4340.0 , 4325.12820513 , 4339.48717949 , 4357.94871795 , 4198.46153846 , 4196.41025641 , 4196.92307692 , 4193.84615385 , 4198.46153846 , 4199.48717949 , 4228.71794872 , 4949.23076923 , 4076.92307692 , 4207.69230769 , 0.559440518993 , 0.0 , 0.0 , 0.0 , 0.0 , 0.0 , 

2016-10-05T18:35:00.093000 , 81.0 , 0.0 , 0.0 , 4335.38461538 , 4331.28205128 , 4345.12820513 , 4350.25641026 , 4207.69230769 , 4205.12820513 , 4199.48717949 , 4195.38461538 , 4197.94871795 , 4199.48717949 , 4227.17948718 , 4950.25641026 , 4066.15384615 , 4206.15384615 , 0.56675668282 , 0.0 , 0.0 , 0.0 , 0.0 , 0.0 , 

2016-10-05T18:35:00.094000 , 82.0 , 0.0 , 0.0 , 4334.35897436 , 4332.30769231 , 4349.23076923 , 4352.82051282 , 4212.30769231 , 4207.69230769 , 4201.02564103 , 4194.87179487 , 4197.94871795 , 4196.41025641 , 4213.33333333 , 4956.92307692 , 4054.35897436 , 4203.07692308 , 0.574072846647 , 0.0 , 0.0 , 0.0 , 0.0 , 0.0 , 

2016-10-05T18:35:00.094000 , 83.0 , 0.0 , 0.0 , 4303.07692308 , 4299.48717949 , 4317.43589744 , 4317.94871795 , 4195.8974359 , 4187.17948718 , 4187.69230769 , 4196.41025641 , 4198.97435897 , 4199.48717949 , 4225.12820513 , 4953.33333333 , 4084.61538462 , 4206.15384615 , 0.581389010474 , 0.0 , 0.0 , 0.0 , 0.0 , 0.0 , 

2016-10-05T18:35:00.094000 , 84.0 , 0.0 , 0.0 , 4307.69230769 , 4302.56410256 , 4327.17948718 , 4321.53846154 , 4194.35897436 , 4189.74358974 , 4189.23076923 , 4193.33333333 , 4197.43589744 , 4200.51282051 , 4214.87179487 , 4954.87179487 , 4067.17948718 , 4202.05128205 , 0.5887051743 , 0.0 , 0.0 , 0.0 , 0.0 , 0.0 , 

2016-10-05T18:35:00.094000 , 85.0 , 0.0 , 0.0 , 4299.48717949 , 4294.35897436 , 4312.82051282 , 4322.05128205 , 4193.33333333 , 4190.25641026 , 4185.12820513 , 4192.30769231 , 4198.46153846 , 4200.0 , 4213.33333333 , 4952.30769231 , 4074.35897436 , 4197.94871795 , 0.596021338127 , 0.0 , 0.0 , 0.0 , 0.0 , 0.0 , 

2016-10-05T18:35:00.095000 , 86.0 , 0.0 , 0.0 , 4291.79487179 , 4292.82051282 , 4303.58974359 , 4325.64102564 , 4192.82051282 , 4188.20512821 , 4188.20512821 , 4194.87179487 , 4194.87179487 , 4194.87179487 , 4198.46153846 , 4958.46153846 , 4079.48717949 , 4196.92307692 , 0.603337501954 , 0.0 , 0.0 , 0.0 , 0.0 , 0.0 , 

2016-10-05T18:35:00.095000 , 87.0 , 0.0 , 0.0 , 4265.64102564 , 4268.20512821 , 4277.43589744 , 4294.35897436 , 4176.41025641 , 4173.84615385 , 4178.97435897 , 4199.48717949 , 4194.35897436 , 4196.92307692 , 4212.82051282 , 4955.38461538 , 4106.66666667 , 4200.51282051 , 0.610653665781 , 0.0 , 0.0 , 0.0 , 0.0 , 0.0 , 

2016-10-05T18:35:00.095000 , 88.0 , 0.0 , 0.0 , 4295.38461538 , 4294.35897436 , 4297.94871795 , 4316.92307692 , 4185.12820513 , 4192.82051282 , 4193.84615385 , 4194.87179487 , 4194.35897436 , 4192.30769231 , 4210.76923077 , 4956.41025641 , 4102.56410256 , 4199.48717949 , 0.617969829608 , 0.0 , 0.0 , 0.0 , 0.0 , 0.0 , 

2016-10-05T18:35:00.095000 , 89.0 , 0.0 , 0.0 , 4291.28205128 , 4292.30769231 , 4296.92307692 , 4313.33333333 , 4193.33333333 , 4198.46153846 , 4196.41025641 , 4193.33333333 , 4194.87179487 , 4193.84615385 , 4217.43589744 , 4954.35897436 , 4114.35897436 , 4203.07692308 , 0.625285993434 , 0.0 , 0.0 , 0.0 , 0.0 , 0.0 , 

2016-10-05T18:35:00.096000 , 90.0 , 0.0 , 0.0 , 4297.43589744 , 4300.51282051 , 4307.69230769 , 4323.58974359 , 4201.53846154 , 4202.56410256 , 4198.46153846 , 4195.8974359 , 4194.87179487 , 4195.8974359 , 4209.23076923 , 4958.97435897 , 4098.46153846 , 4204.61538462 , 0.632602157261 , 0.0 , 0.0 , 0.0 , 0.0 , 0.0 , 

2016-10-05T18:35:00.096000 , 91.0 , 0.0 , 0.0 , 4292.30769231 , 4294.35897436 , 4293.84615385 , 4316.92307692 , 4197.43589744 , 4197.94871795 , 4190.25641026 , 4196.41025641 , 4196.92307692 , 4198.97435897 , 4226.15384615 , 4951.28205128 , 4109.74358974 , 4206.15384615 , 0.639918321088 , 0.0 , 0.0 , 0.0 , 0.0 , 0.0 , 

2016-10-05T18:35:00.096000 , 92.0 , 0.0 , 0.0 , 4309.74358974 , 4310.76923077 , 4307.17948718 , 4329.23076923 , 4205.12820513 , 4209.23076923 , 4198.97435897 , 4195.38461538 , 4195.38461538 , 4198.46153846 , 4223.58974359 , 4948.71794872 , 4096.41025641 , 4205.64102564 , 0.647234484915 , 0.0 , 0.0 , 0.0 , 0.0 , 0.0 , 

2016-10-05T18:35:00.097000 , 93.0 , 0.0 , 0.0 , 4307.17948718 , 4306.66666667 , 4310.25641026 , 4328.71794872 , 4206.66666667 , 4208.71794872 , 4200.0 , 4196.41025641 , 4196.41025641 , 4198.97435897 , 4218.46153846 , 4951.79487179 , 4082.56410256 , 4205.64102564 , 0.654550648742 , 0.0 , 0.0 , 0.0 , 0.0 , 0.0 , 

2016-10-05T18:35:00.097000 , 94.0 , 0.0 , 0.0 , 4318.46153846 , 4311.28205128 , 4324.1025641 , 4351.28205128 , 4203.58974359 , 4199.48717949 , 4194.35897436 , 4196.41025641 , 4197.94871795 , 4198.46153846 , 4220.51282051 , 4952.82051282 , 4075.38461538 , 4203.07692308 , 0.661866812568 , 0.0 , 0.0 , 0.0 , 0.0 , 0.0 , 

2016-10-05T18:35:00.097000 , 95.0 , 0.0 , 0.0 , 4321.53846154 , 4307.69230769 , 4327.17948718 , 4339.48717949 , 4195.8974359 , 4189.23076923 , 4187.17948718 , 4194.35897436 , 4196.92307692 , 4201.02564103 , 4231.79487179 , 4947.17948718 , 4084.61538462 , 4202.05128205 , 0.669182976395 , 0.0 , 0.0 , 0.0 , 0.0 , 0.0 , 

2016-10-05T18:35:00.097000 , 96.0 , 0.0 , 0.0 , 4321.53846154 , 4304.61538462 , 4340.0 , 4335.38461538 , 4190.25641026 , 4189.74358974 , 4189.74358974 , 4193.84615385 , 4197.94871795 , 4202.56410256 , 4222.05128205 , 4950.25641026 , 4066.15384615 , 4199.48717949 , 0.676499140222 , 0.0 , 0.0 , 0.0 , 0.0 , 0.0 , 

2016-10-05T18:35:00.097000 , 97.0 , 0.0 , 0.0 , 4320.0 , 4302.56410256 , 4350.76923077 , 4354.87179487 , 4197.43589744 , 4197.94871795 , 4195.8974359 , 4194.35897436 , 4200.51282051 , 4200.51282051 , 4210.25641026 , 4956.92307692 , 4050.25641026 , 4197.94871795 , 0.683815304049 , 0.0 , 0.0 , 0.0 , 0.0 , 0.0 , 

2016-10-05T18:35:00.097000 , 98.0 , 0.0 , 0.0 , 4302.05128205 , 4291.28205128 , 4336.41025641 , 4333.84615385 , 4202.56410256 , 4198.97435897 , 4196.92307692 , 4195.8974359 , 4200.51282051 , 4200.0 , 4218.97435897 , 4954.87179487 , 4066.15384615 , 4201.02564103 , 0.691131467876 , 0.0 , 0.0 , 0.0 , 0.0 , 0.0 , 

2016-10-05T18:35:00.098000 , 99.0 , 0.0 , 0.0 , 4296.92307692 , 4291.28205128 , 4327.17948718 , 4309.23076923 , 4198.46153846 , 4192.82051282 , 4187.69230769 , 4195.38461538 , 4196.41025641 , 4194.87179487 , 4212.82051282 , 4953.84615385 , 4063.58974359 , 4200.51282051 , 0.698447631702 , 0.0 , 0.0 , 0.0 , 0.0 , 0.0 , 

2016-10-05T18:35:00.098000 , 100.0 , 0.0 , 0.0 , 4287.69230769 , 4284.1025641 , 4301.02564103 , 4308.20512821 , 4192.30769231 , 4181.53846154 , 4174.35897436 , 4196.92307692 , 4195.8974359 , 4196.92307692 , 4217.43589744 , 4950.25641026 , 4086.15384615 , 4198.46153846 , 0.705763795529 , 0.0 , 0.0 , 0.0 , 0.0 , 0.0 , 

2016-10-05T18:35:00.098000 , 101.0 , 0.0 , 0.0 , 4288.20512821 , 4289.74358974 , 4297.94871795 , 4323.07692308 , 4199.48717949 , 4190.25641026 , 4187.69230769 , 4194.87179487 , 4195.8974359 , 4198.46153846 , 4210.76923077 , 4956.41025641 , 4096.41025641 , 4198.46153846 , 0.713079959356 , 0.0 , 0.0 , 0.0 , 0.0 , 0.0 , 

2016-10-05T18:35:00.098000 , 102.0 , 0.0 , 0.0 , 4284.1025641 , 4287.17948718 , 4305.64102564 , 4317.43589744 , 4193.84615385 , 4191.79487179 , 4192.82051282 , 4194.35897436 , 4195.8974359 , 4199.48717949 , 4216.92307692 , 4958.46153846 , 4092.82051282 , 4202.05128205 , 0.720396123183 , 0.0 , 0.0 , 0.0 , 0.0 , 0.0 , 

2016-10-05T18:35:00.098000 , 103.0 , 0.0 , 0.0 , 4315.38461538 , 4315.38461538 , 4327.69230769 , 4346.66666667 , 4201.53846154 , 4203.58974359 , 4202.56410256 , 4194.87179487 , 4192.30769231 , 4195.38461538 , 4215.38461538 , 4957.43589744 , 4073.84615385 , 4201.02564103 , 0.72771228701 , 0.0 , 0.0 , 0.0 , 0.0 , 0.0 , 

2016-10-05T18:35:00.099000 , 104.0 , 0.0 , 0.0 , 4301.53846154 , 4305.12820513 , 4294.87179487 , 4328.20512821 , 4197.94871795 , 4193.84615385 , 4194.87179487 , 4198.46153846 , 4194.35897436 , 4196.92307692 , 4233.84615385 , 4948.71794872 , 4113.33333333 , 4201.02564103 , 0.735028450836 , 0.0 , 0.0 , 0.0 , 0.0 , 0.0 , 

2016-10-05T18:35:00.099000 , 105.0 , 0.0 , 0.0 , 4306.15384615 , 4312.30769231 , 4305.12820513 , 4331.28205128 , 4193.84615385 , 4192.30769231 , 4197.43589744 , 4196.92307692 , 4196.41025641 , 4194.87179487 , 4216.41025641 , 4954.35897436 , 4103.07692308 , 4199.48717949 , 0.742344614663 , 0.0 , 0.0 , 0.0 , 0.0 , 0.0 , 

2016-10-05T18:35:00.099000 , 106.0 , 0.0 , 0.0 , 4304.1025641 , 4304.1025641 , 4306.15384615 , 4334.87179487 , 4195.38461538 , 4198.46153846 , 4197.43589744 , 4194.35897436 , 4197.94871795 , 4197.94871795 , 4222.56410256 , 4953.33333333 , 4095.8974359 , 4202.56410256 , 0.74966077849 , 0.0 , 0.0 , 0.0 , 0.0 , 0.0 , 

2016-10-05T18:35:00.099000 , 107.0 , 0.0 , 0.0 , 4320.51282051 , 4318.97435897 , 4318.97435897 , 4348.20512821 , 4212.82051282 , 4213.84615385 , 4205.64102564 , 4193.33333333 , 4194.87179487 , 4199.48717949 , 4222.56410256 , 4954.87179487 , 4080.0 , 4201.53846154 , 0.756976942317 , 0.0 , 0.0 , 0.0 , 0.0 , 0.0 , 

2016-10-05T18:35:00.099000 , 108.0 , 0.0 , 0.0 , 4306.66666667 , 4306.66666667 , 4313.84615385 , 4312.82051282 , 4199.48717949 , 4189.74358974 , 4181.53846154 , 4197.94871795 , 4197.43589744 , 4202.56410256 , 4226.15384615 , 4950.76923077 , 4087.17948718 , 4200.51282051 , 0.764293106144 , 0.0 , 0.0 , 0.0 , 0.0 , 0.0 , 

2016-10-05T18:35:00.100000 , 109.0 , 0.0 , 0.0 , 4322.05128205 , 4315.8974359 , 4336.92307692 , 4332.82051282 , 4192.30769231 , 4185.12820513 , 4177.43589744 , 4196.92307692 , 4198.46153846 , 4201.53846154 , 4210.76923077 , 4953.33333333 , 4066.66666667 , 4202.05128205 , 0.77160926997 , 0.0 , 0.0 , 0.0 , 0.0 , 0.0 , 

2016-10-05T18:35:00.100000 , 110.0 , 0.0 , 0.0 , 4316.41025641 , 4304.1025641 , 4330.76923077 , 4340.0 , 4202.05128205 , 4201.02564103 , 4192.82051282 , 4193.84615385 , 4198.46153846 , 4201.02564103 , 4217.94871795 , 4951.28205128 , 4071.28205128 , 4205.12820513 , 0.778925433797 , 0.0 , 0.0 , 0.0 , 0.0 , 0.0 , 

2016-10-05T18:35:00.100000 , 111.0 , 0.0 , 0.0 , 4317.43589744 , 4305.12820513 , 4339.48717949 , 4336.92307692 , 4207.17948718 , 4206.66666667 , 4201.02564103 , 4195.38461538 , 4198.46153846 , 4200.51282051 , 4208.71794872 , 4953.33333333 , 4056.41025641 , 4203.07692308 , 0.786241597624 , 0.0 , 0.0 , 0.0 , 0.0 , 0.0 , 

2016-10-05T18:35:00.101000 , 112.0 , 0.0 , 0.0 , 4295.38461538 , 4288.20512821 , 4328.71794872 , 4315.38461538 , 4187.69230769 , 4186.15384615 , 4189.23076923 , 4198.46153846 , 4198.97435897 , 4202.56410256 , 4210.25641026 , 4951.28205128 , 4065.64102564 , 4203.07692308 , 0.793557761451 , 0.0 , 0.0 , 0.0 , 0.0 , 0.0 , 

2016-10-05T18:35:00.101000 , 113.0 , 0.0 , 0.0 , 4275.8974359 , 4277.94871795 , 4303.07692308 , 4311.28205128 , 4182.56410256 , 4183.07692308 , 4188.71794872 , 4195.8974359 , 4200.0 , 4203.07692308 , 4212.30769231 , 4949.74358974 , 4083.58974359 , 4202.56410256 , 0.800873925277 , 0.0 , 0.0 , 0.0 , 0.0 , 0.0 , 

2016-10-05T18:35:00.102000 , 114.0 , 0.0 , 0.0 , 4264.61538462 , 4268.71794872 , 4283.58974359 , 4299.48717949 , 4186.15384615 , 4186.15384615 , 4183.58974359 , 4193.84615385 , 4201.02564103 , 4201.53846154 , 4204.61538462 , 4951.28205128 , 4091.79487179 , 4199.48717949 , 0.808190089104 , 0.0 , 0.0 , 0.0 , 0.0 , 0.0 , 

2016-10-05T18:35:00.102000 , 115.0 , 0.0 , 0.0 , 4275.38461538 , 4278.97435897 , 4292.82051282 , 4306.15384615 , 4186.15384615 , 4187.69230769 , 4183.58974359 , 4195.8974359 , 4199.48717949 , 4201.02564103 , 4208.71794872 , 4956.41025641 , 4095.38461538 , 4198.97435897 , 0.815506252931 , 0.0 , 0.0 , 0.0 , 0.0 , 0.0 , 

2016-10-05T18:35:00.102000 , 116.0 , 0.0 , 0.0 , 4288.71794872 , 4296.41025641 , 4298.46153846 , 4315.8974359 , 4192.30769231 , 4194.87179487 , 4193.84615385 , 4194.35897436 , 4194.35897436 , 4196.92307692 , 4230.25641026 , 4957.43589744 , 4109.23076923 , 4201.53846154 , 0.977316163827 , 0.0 , 0.0 , 0.0 , 0.0 , 0.0 , 

2016-10-05T18:35:00.102000 , 117.0 , 0.0 , 0.0 , 4284.61538462 , 4294.35897436 , 4287.69230769 , 4302.05128205 , 4201.02564103 , 4196.92307692 , 4195.38461538 , 4194.87179487 , 4193.84615385 , 4196.41025641 , 4238.97435897 , 4949.23076923 , 4122.56410256 , 4204.1025641 , 0.984632327654 , 0.0 , 0.0 , 0.0 , 0.0 , 0.0 , 

2016-10-05T18:35:00.103000 , 118.0 , 0.0 , 0.0 , 4293.84615385 , 4300.51282051 , 4300.51282051 , 4315.38461538 , 4207.17948718 , 4205.12820513 , 4201.02564103 , 4195.38461538 , 4194.87179487 , 4194.35897436 , 4211.79487179 , 4952.30769231 , 4104.1025641 , 4204.1025641 , 0.99194849148 , 0.0 , 0.0 , 0.0 , 0.0 , 0.0 , 

2016-10-05T18:35:00.105000 , 119.0 , 0.0 , 0.0 , 4293.33333333 , 4298.46153846 , 4299.48717949 , 4327.17948718 , 4196.92307692 , 4195.38461538 , 4194.87179487 , 4195.8974359 , 4200.51282051 , 4197.43589744 , 4214.87179487 , 4955.38461538 , 4108.71794872 , 4205.12820513 , 0.999264655307 , 0.0 , 0.0 , 0.0 , 0.0 , 0.0 , 

2016-10-05T18:35:00.105000 , 120.0 , 0.0 , 0.0 , 4314.87179487 , 4317.94871795 , 4312.82051282 , 4336.92307692 , 4199.48717949 , 4192.30769231 , 4192.82051282 , 4196.41025641 , 4204.1025641 , 4197.43589744 , 4216.41025641 , 4956.41025641 , 4093.33333333 , 4203.58974359 , 1.00658081913 , 0.0 , 0.0 , 0.0 , 0.0 , 0.0 , 

2016-10-05T18:35:00.105000 , 121.0 , 0.0 , 0.0 , 4318.46153846 , 4310.25641026 , 4313.84615385 , 4328.71794872 , 4205.12820513 , 4193.84615385 , 4188.71794872 , 4197.94871795 , 4198.97435897 , 4201.02564103 , 4225.64102564 , 4947.17948718 , 4088.71794872 , 4205.12820513 , 1.01389698296 , 0.0 , 0.0 , 0.0 , 0.0 , 0.0 , 

2016-10-05T18:35:00.106000 , 122.0 , 0.0 , 0.0 , 4341.53846154 , 4322.05128205 , 4346.15384615 , 4364.1025641 , 4209.74358974 , 4204.61538462 , 4195.8974359 , 4194.87179487 , 4190.25641026 , 4198.46153846 , 4215.38461538 , 4949.23076923 , 4061.02564103 , 4204.1025641 , 1.02121314679 , 0.0 , 0.0 , 0.0 , 0.0 , 0.0 , 

2016-10-05T18:35:00.106000 , 123.0 , 0.0 , 0.0 , 4319.48717949 , 4304.61538462 , 4336.92307692 , 4343.07692308 , 4191.79487179 , 4185.12820513 , 4185.12820513 , 4195.8974359 , 4197.43589744 , 4201.53846154 , 4227.17948718 , 4946.66666667 , 4070.76923077 , 4202.56410256 , 1.02852931061 , 0.0 , 0.0 , 0.0 , 0.0 , 0.0 , 

2016-10-05T18:35:00.107000 , 124.0 , 0.0 , 0.0 , 4311.28205128 , 4304.61538462 , 4340.0 , 4330.76923077 , 4191.28205128 , 4186.15384615 , 4188.71794872 , 4197.94871795 , 4201.53846154 , 4201.53846154 , 4217.43589744 , 4951.79487179 , 4058.97435897 , 4198.46153846 , 1.03584547444 , 0.0 , 0.0 , 0.0 , 0.0 , 0.0 , 

2016-10-05T18:35:00.107000 , 125.0 , 0.0 , 0.0 , 4288.20512821 , 4281.53846154 , 4318.97435897 , 4313.84615385 , 4187.69230769 , 4185.12820513 , 4178.97435897 , 4197.94871795 , 4198.46153846 , 4202.05128205 , 4216.92307692 , 4951.28205128 , 4070.25641026 , 4198.97435897 , 1.04316163827 , 0.0 , 0.0 , 0.0 , 0.0 , 0.0 , 

2016-10-05T18:35:00.107000 , 126.0 , 0.0 , 0.0 , 4292.30769231 , 4284.61538462 , 4324.1025641 , 4322.05128205 , 4187.17948718 , 4188.71794872 , 4183.58974359 , 4195.38461538 , 4194.35897436 , 4198.97435897 , 4196.92307692 , 4957.94871795 , 4056.92307692 , 4198.46153846 , 1.05047780209 , 0.0 , 0.0 , 0.0 , 0.0 , 0.0 , 

2016-10-05T18:35:00.107000 , 127.0 , 0.0 , 0.0 , 4278.97435897 , 4272.82051282 , 4301.53846154 , 4298.97435897 , 4183.58974359 , 4185.12820513 , 4187.69230769 , 4196.41025641 , 4195.38461538 , 4201.02564103 , 4212.30769231 , 4955.38461538 , 4082.56410256 , 4202.05128205 , 1.05779396592 , 0.0 , 0.0 , 0.0 , 0.0 , 0.0 , 

2016-10-05T18:35:00.107000 , 128.0 , 0.0 , 0.0 , 4287.69230769 , 4282.05128205 , 4287.69230769 , 4307.69230769 , 4194.87179487 , 4195.38461538 , 4196.92307692 , 4196.92307692 , 4193.84615385 , 4200.0 , 4218.97435897 , 4955.38461538 , 4106.66666667 , 4202.56410256 , 1.06511012975 , 0.0 , 0.0 , 0.0 , 0.0 , 0.0 , 

2016-10-05T18:35:00.107000 , 0.0 , 0.0 , 0.0 , 4278.97435897 , 4277.43589744 , 4274.87179487 , 4304.61538462 , 4195.8974359 , 4194.35897436 , 4193.84615385 , 4197.43589744 , 4194.87179487 , 4200.51282051 , 4221.02564103 , 4952.30769231 , 4124.1025641 , 4202.05128205 , 1.07242629358 , 0.0 , 0.0 , 0.0 , 0.0 , 0.0 , 

2016-10-05T18:35:00.108000 , 1.0 , 0.0 , 2.0 , 4292.30769231 , 4293.33333333 , 4301.02564103 , 4323.07692308 , 4198.97435897 , 4198.97435897 , 4205.12820513 , 4195.8974359 , 4194.87179487 , 4200.0 , 4216.92307692 , 4952.82051282 , 4100.51282051 , 4203.58974359 , 1.0797424574 , 0.0 , 0.0 , 0.0 , 0.0 , 0.0 , 

2016-10-05T18:35:00.108000 , 2.0 , 0.0 , 0.0 , 4298.46153846 , 4293.84615385 , 4309.23076923 , 4327.69230769 , 4194.35897436 , 4196.92307692 , 4203.58974359 , 4194.35897436 , 4197.43589744 , 4198.97435897 , 4222.56410256 , 4949.74358974 , 4093.33333333 , 4206.66666667 , 1.08705862123 , 0.0 , 0.0 , 0.0 , 0.0 , 0.0 , 

2016-10-05T18:35:00.108000 , 3.0 , 0.0 , 1.0 , 4300.51282051 , 4295.8974359 , 4303.07692308 , 4326.66666667 , 4189.23076923 , 4191.79487179 , 4191.28205128 , 4196.41025641 , 4200.0 , 4200.0 , 4223.07692308 , 4946.66666667 , 4097.94871795 , 4203.58974359 , 1.09437478506 , 0.0 , 0.0 , 0.0 , 0.0 , 0.0 , 

2016-10-05T18:35:00.108000 , 4.0 , 0.0 , 0.0 , 4311.28205128 , 4309.23076923 , 4305.12820513 , 4335.38461538 , 4196.92307692 , 4199.48717949 , 4193.33333333 , 4194.87179487 , 4195.8974359 , 4201.02564103 , 4232.30769231 , 4945.12820513 , 4102.05128205 , 4201.53846154 , 1.10169094888 , 0.0 , 0.0 , 0.0 , 0.0 , 0.0 , 

2016-10-05T18:35:00.108000 , 5.0 , 0.0 , 0.0 , 4325.12820513 , 4324.1025641 , 4313.84615385 , 4352.30769231 , 4211.79487179 , 4212.82051282 , 4206.15384615 , 4192.82051282 , 4192.30769231 , 4198.97435897 , 4234.35897436 , 4946.66666667 , 4103.07692308 , 4202.56410256 , 1.10900711271 , 0.0 , 0.0 , 0.0 , 0.0 , 0.0 , 

2016-10-05T18:35:00.108000 , 6.0 , 0.0 , 0.0 , 4330.25641026 , 4321.53846154 , 4324.61538462 , 4348.20512821 , 4204.1025641 , 4202.05128205 , 4197.43589744 , 4194.35897436 , 4193.84615385 , 4196.41025641 , 4217.94871795 , 4949.74358974 , 4089.74358974 , 4202.56410256 , 1.11632327654 , 0.0 , 0.0 , 0.0 , 0.0 , 0.0 , 

2016-10-05T18:35:00.109000 , 7.0 , 0.0 , 0.0 , 4317.94871795 , 4304.61538462 , 4329.23076923 , 4335.38461538 , 4184.1025641 , 4174.87179487 , 4173.84615385 , 4198.46153846 , 4196.92307692 , 4201.53846154 , 4220.0 , 4945.64102564 , 4078.97435897 , 4203.07692308 , 1.12363944036 , 0.0 , 0.0 , 0.0 , 0.0 , 0.0 , 

2016-10-05T18:35:00.109000 , 8.0 , 0.0 , 0.0 , 4322.05128205 , 4312.30769231 , 4342.05128205 , 4349.74358974 , 4197.43589744 , 4188.71794872 , 4185.12820513 , 4195.8974359 , 4196.41025641 , 4199.48717949 , 4215.8974359 , 4950.76923077 , 4064.61538462 , 4202.56410256 , 1.13095560419 , 0.0 , 0.0 , 0.0 , 0.0 , 0.0 , 

2016-10-05T18:35:00.109000 , 9.0 , 0.0 , 0.0 , 4308.71794872 , 4304.61538462 , 4332.30769231 , 4336.92307692 , 4205.64102564 , 4201.02564103 , 4193.84615385 , 4195.38461538 , 4199.48717949 , 4200.51282051 , 4221.02564103 , 4951.28205128 , 4074.87179487 , 4204.61538462 , 1.13827176802 , 0.0 , 0.0 , 0.0 , 0.0 , 0.0 , 

2016-10-05T18:35:00.109000 , 10.0 , 0.0 , 0.0 , 4322.56410256 , 4316.41025641 , 4354.87179487 , 4347.17948718 , 4200.51282051 , 4197.94871795 , 4192.30769231 , 4194.87179487 , 4200.51282051 , 4201.53846154 , 4204.1025641 , 4953.84615385 , 4048.71794872 , 4201.53846154 , 1.14558793184 , 0.0 , 0.0 , 0.0 , 0.0 , 0.0 , 

2016-10-05T18:35:00.109000 , 11.0 , 0.0 , 0.0 , 4301.53846154 , 4296.41025641 , 4328.71794872 , 4327.17948718 , 4191.79487179 , 4184.61538462 , 4180.0 , 4195.8974359 , 4201.02564103 , 4201.02564103 , 4208.71794872 , 4949.74358974 , 4073.33333333 , 4200.51282051 , 1.04731616383 , 0.0 , 0.0 , 0.0 , 0.0 , 0.0 , 

2016-10-05T18:35:00.109000 , 12.0 , 0.0 , 0.0 , 4289.23076923 , 4287.17948718 , 4299.48717949 , 4315.38461538 , 4195.38461538 , 4192.82051282 , 4187.69230769 , 4194.87179487 , 4196.41025641 , 4196.41025641 , 4205.12820513 , 4954.87179487 , 4096.92307692 , 4201.02564103 , 1.05463232765 , 0.0 , 0.0 , 0.0 , 0.0 , 0.0 , 

2016-10-05T18:35:00.110000 , 13.0 , 0.0 , 0.0 , 4276.41025641 , 4275.38461538 , 4282.56410256 , 4298.46153846 , 4186.66666667 , 4188.20512821 , 4187.17948718 , 4195.38461538 , 4196.92307692 , 4200.0 , 4222.56410256 , 4953.84615385 , 4110.76923077 , 4205.12820513 , 1.06194849148 , 0.0 , 0.0 , 0.0 , 0.0 , 0.0 , 

2016-10-05T18:35:00.110000 , 14.0 , 0.0 , 0.0 , 4304.1025641 , 4307.69230769 , 4311.79487179 , 4329.74358974 , 4199.48717949 , 4198.46153846 , 4196.92307692 , 4194.87179487 , 4197.94871795 , 4197.43589744 , 4219.48717949 , 4957.43589744 , 4089.23076923 , 4200.51282051 , 1.06926465531 , 0.0 , 0.0 , 0.0 , 0.0 , 0.0 , 

2016-10-05T18:35:00.110000 , 15.0 , 0.0 , 0.0 , 4288.71794872 , 4294.35897436 , 4286.15384615 , 4308.71794872 , 4201.02564103 , 4192.30769231 , 4185.64102564 , 4197.43589744 , 4198.46153846 , 4196.41025641 , 4231.28205128 , 4951.79487179 , 4117.94871795 , 4201.53846154 , 1.07658081913 , 0.0 , 0.0 , 0.0 , 0.0 , 0.0 , 

2016-10-05T18:35:00.110000 , 16.0 , 0.0 , 0.0 , 4293.33333333 , 4294.87179487 , 4287.17948718 , 4307.69230769 , 4199.48717949 , 4200.0 , 4191.28205128 , 4195.8974359 , 4193.84615385 , 4195.38461538 , 4221.02564103 , 4953.33333333 , 4115.38461538 , 4204.1025641 , 1.08389698296 , 0.0 , 0.0 , 0.0 , 0.0 , 0.0 , 

2016-10-05T18:35:00.110000 , 17.0 , 0.0 , 0.0 , 4285.12820513 , 4287.17948718 , 4283.58974359 , 4301.53846154 , 4193.33333333 , 4198.46153846 , 4196.41025641 , 4194.35897436 , 4195.8974359 , 4199.48717949 , 4224.61538462 , 4951.28205128 , 4118.46153846 , 4206.66666667 , 1.09121314679 , 0.0 , 0.0 , 0.0 , 0.0 , 0.0 , 

2016-10-05T18:35:00.110000 , 18.0 , 0.0 , 0.0 , 4304.1025641 , 4308.71794872 , 4301.02564103 , 4324.61538462 , 4202.05128205 , 4200.51282051 , 4200.51282051 , 4195.38461538 , 4198.46153846 , 4202.05128205 , 4218.97435897 , 4950.76923077 , 4101.53846154 , 4205.64102564 , 1.09852931061 , 0.0 , 0.0 , 0.0 , 0.0 , 0.0 , 

2016-10-05T18:35:00.111000 , 19.0 , 0.0 , 0.0 , 4307.69230769 , 4306.66666667 , 4310.76923077 , 4323.58974359 , 4208.71794872 , 4205.12820513 , 4196.92307692 , 4197.43589744 , 4196.92307692 , 4200.0 , 4218.46153846 , 4947.69230769 , 4088.71794872 , 4205.64102564 , 1.10584547444 , 0.0 , 0.0 , 0.0 , 0.0 , 0.0 , 

2016-10-05T18:35:00.111000 , 20.0 , 0.0 , 0.0 , 4316.92307692 , 4307.17948718 , 4328.20512821 , 4340.0 , 4208.20512821 , 4209.74358974 , 4203.07692308 , 4198.97435897 , 4197.94871795 , 4195.8974359 , 4217.43589744 , 4949.23076923 , 4075.38461538 , 4202.56410256 , 1.11316163827 , 0.0 , 0.0 , 0.0 , 0.0 , 0.0 , 

2016-10-05T18:35:00.112000 , 21.0 , 0.0 , 0.0 , 4322.05128205 , 4306.15384615 , 4326.15384615 , 4346.66666667 , 4197.43589744 , 4196.92307692 , 4195.8974359 , 4199.48717949 , 4200.0 , 4200.0 , 4222.56410256 , 4950.25641026 , 4081.02564103 , 4201.02564103 , 1.12047780209 , 0.0 , 0.0 , 0.0 , 0.0 , 0.0 , 

2016-10-05T18:35:00.112000 , 22.0 , 0.0 , 0.0 , 4321.02564103 , 4309.74358974 , 4334.35897436 , 4336.41025641 , 4196.41025641 , 4191.79487179 , 4186.66666667 , 4196.41025641 , 4197.94871795 , 4203.58974359 , 4218.46153846 , 4951.28205128 , 4067.69230769 , 4201.02564103 , 1.12779396592 , 0.0 , 0.0 , 0.0 , 0.0 , 0.0 , 

2016-10-05T18:35:00.112000 , 23.0 , 0.0 , 0.0 , 4304.61538462 , 4302.05128205 , 4335.8974359 , 4325.64102564 , 4203.07692308 , 4194.35897436 , 4186.15384615 , 4194.35897436 , 4195.38461538 , 4201.02564103 , 4210.25641026 , 4953.33333333 , 4056.41025641 , 4199.48717949 , 1.13511012975 , 0.0 , 0.0 , 0.0 , 0.0 , 0.0 , 

2016-10-05T18:35:00.112000 , 24.0 , 0.0 , 0.0 , 4283.58974359 , 4281.02564103 , 4309.74358974 , 4316.41025641 , 4194.35897436 , 4184.1025641 , 4183.58974359 , 4196.41025641 , 4198.97435897 , 4200.51282051 , 4208.71794872 , 4954.35897436 , 4079.48717949 , 4198.46153846 , 1.14242629358 , 0.0 , 0.0 , 0.0 , 0.0 , 0.0 , 

2016-10-05T18:35:00.112000 , 25.0 , 0.0 , 0.0 , 4291.28205128 , 4281.53846154 , 4305.64102564 , 4308.71794872 , 4191.79487179 , 4188.71794872 , 4188.20512821 , 4194.87179487 , 4199.48717949 , 4196.92307692 , 4208.20512821 , 4956.41025641 , 4083.58974359 , 4200.51282051 , 1.1497424574 , 0.0 , 0.0 , 0.0 , 0.0 , 0.0 , 

2016-10-05T18:35:00.112000 , 26.0 , 0.0 , 0.0 , 4291.79487179 , 4283.58974359 , 4300.0 , 4305.64102564 , 4192.82051282 , 4190.76923077 , 4189.23076923 , 4196.92307692 , 4196.92307692 , 4199.48717949 , 4226.15384615 , 4950.25641026 , 4094.35897436 , 4204.1025641 , 1.15705862123 , 0.0 , 0.0 , 0.0 , 0.0 , 0.0 , 

2016-10-05T18:35:00.113000 , 27.0 , 0.0 , 0.0 , 4296.41025641 , 4295.38461538 , 4297.94871795 , 4326.66666667 , 4198.97435897 , 4194.87179487 , 4197.43589744 , 4196.92307692 , 4194.87179487 , 4200.0 , 4222.05128205 , 4952.82051282 , 4100.51282051 , 4201.53846154 , 1.16437478506 , 0.0 , 0.0 , 0.0 , 0.0 , 0.0 , 

2016-10-05T18:35:00.113000 , 28.0 , 0.0 , 0.0 , 4275.38461538 , 4278.46153846 , 4285.12820513 , 4303.58974359 , 4193.84615385 , 4191.28205128 , 4193.84615385 , 4195.38461538 , 4196.92307692 , 4198.97435897 , 4229.74358974 , 4951.79487179 , 4116.41025641 , 4201.53846154 , 1.17169094888 , 0.0 , 0.0 , 0.0 , 0.0 , 0.0 , 

2016-10-05T18:35:00.113000 , 29.0 , 0.0 , 0.0 , 4291.28205128 , 4296.41025641 , 4305.12820513 , 4309.74358974 , 4192.82051282 , 4194.35897436 , 4194.87179487 , 4193.84615385 , 4195.8974359 , 4195.8974359 , 4224.1025641 , 4952.30769231 , 4096.41025641 , 4202.56410256 , 1.17900711271 , 0.0 , 0.0 , 0.0 , 0.0 , 0.0 , 

2016-10-05T18:35:00.113000 , 30.0 , 0.0 , 0.0 , 4296.41025641 , 4303.58974359 , 4294.87179487 , 4317.94871795 , 4188.71794872 , 4187.17948718 , 4186.66666667 , 4196.92307692 , 4197.43589744 , 4202.05128205 , 4228.71794872 , 4948.71794872 , 4107.69230769 , 4206.15384615 , 1.18632327654 , 0.0 , 0.0 , 0.0 , 0.0 , 0.0 , 

2016-10-05T18:35:00.113000 , 31.0 , 0.0 , 0.0 , 4311.28205128 , 4316.92307692 , 4308.71794872 , 4334.35897436 , 4198.46153846 , 4201.02564103 , 4197.94871795 , 4196.41025641 , 4196.41025641 , 4203.07692308 , 4215.38461538 , 4951.79487179 , 4094.87179487 , 4204.61538462 , 1.19363944036 , 0.0 , 0.0 , 0.0 , 0.0 , 0.0 , 

2016-10-05T18:35:00.113000 , 32.0 , 0.0 , 0.0 , 4300.51282051 , 4303.07692308 , 4296.41025641 , 4318.46153846 , 4194.35897436 , 4197.94871795 , 4196.41025641 , 4196.92307692 , 4196.41025641 , 4202.56410256 , 4231.28205128 , 4945.12820513 , 4107.17948718 , 4205.12820513 , 1.20095560419 , 0.0 , 0.0 , 0.0 , 0.0 , 0.0 , 

2016-10-05T18:35:00.113000 , 33.0 , 0.0 , 0.0 , 4335.38461538 , 4325.64102564 , 4320.0 , 4357.43589744 , 4197.43589744 , 4198.46153846 , 4195.8974359 , 4197.43589744 , 4195.38461538 , 4197.94871795 , 4219.48717949 , 4953.84615385 , 4086.66666667 , 4202.56410256 , 1.20827176802 , 0.0 , 0.0 , 0.0 , 0.0 , 0.0 , 

2016-10-05T18:35:00.114000 , 34.0 , 0.0 , 0.0 , 4331.28205128 , 4315.8974359 , 4326.66666667 , 4348.20512821 , 4197.43589744 , 4193.84615385 , 4187.69230769 , 4198.46153846 , 4198.97435897 , 4202.56410256 , 4222.05128205 , 4952.30769231 , 4083.07692308 , 4203.58974359 , 1.21558793184 , 0.0 , 0.0 , 0.0 , 0.0 , 0.0 , 

2016-10-05T18:35:00.114000 , 35.0 , 0.0 , 0.0 , 4318.97435897 , 4312.82051282 , 4341.53846154 , 4338.97435897 , 4206.66666667 , 4200.51282051 , 4196.92307692 , 4197.43589744 , 4197.94871795 , 4203.58974359 , 4214.35897436 , 4948.71794872 , 4067.17948718 , 4203.58974359 , 1.22290409567 , 0.0 , 0.0 , 0.0 , 0.0 , 0.0 , 

2016-10-05T18:35:00.114000 , 36.0 , 0.0 , 0.0 , 4292.82051282 , 4289.23076923 , 4322.05128205 , 4324.1025641 , 4196.41025641 , 4188.71794872 , 4187.17948718 , 4196.41025641 , 4196.92307692 , 4201.53846154 , 4216.41025641 , 4949.23076923 , 4078.46153846 , 4206.15384615 , 1.2302202595 , 0.0 , 0.0 , 0.0 , 0.0 , 0.0 , 

2016-10-05T18:35:00.114000 , 37.0 , 0.0 , 0.0 , 4301.53846154 , 4293.84615385 , 4326.15384615 , 4332.82051282 , 4193.84615385 , 4195.8974359 , 4189.23076923 , 4195.38461538 , 4195.38461538 , 4198.97435897 , 4203.58974359 , 4954.87179487 , 4063.07692308 , 4205.12820513 , 1.23753642332 , 0.0 , 0.0 , 0.0 , 0.0 , 0.0 , 

2016-10-05T18:35:00.114000 , 38.0 , 0.0 , 0.0 , 4297.94871795 , 4291.28205128 , 4322.56410256 , 4321.02564103 , 4190.25641026 , 4194.87179487 , 4191.28205128 , 4194.35897436 , 4195.8974359 , 4201.02564103 , 4201.02564103 , 4950.76923077 , 4065.12820513 , 4202.05128205 , 1.24485258715 , 0.0 , 0.0 , 0.0 , 0.0 , 0.0 , 

2016-10-05T18:35:00.114000 , 39.0 , 0.0 , 0.0 , 4293.84615385 , 4288.20512821 , 4311.28205128 , 4323.07692308 , 4189.23076923 , 4188.71794872 , 4191.28205128 , 4194.87179487 , 4198.46153846 , 4200.51282051 , 4206.15384615 , 4951.79487179 , 4081.53846154 , 4201.02564103 , 1.25216875098 , 0.0 , 0.0 , 0.0 , 0.0 , 0.0 , 

2016-10-05T18:35:00.115000 , 40.0 , 0.0 , 0.0 , 4277.43589744 , 4273.84615385 , 4291.79487179 , 4309.74358974 , 4186.15384615 , 4186.66666667 , 4187.17948718 , 4196.92307692 , 4198.97435897 , 4198.97435897 , 4217.43589744 , 4955.8974359 , 4097.94871795 , 4203.07692308 , 1.2594849148 , 0.0 , 0.0 , 0.0 , 0.0 , 0.0 , 

2016-10-05T18:35:00.115000 , 41.0 , 0.0 , 0.0 , 4270.25641026 , 4273.33333333 , 4285.64102564 , 4295.8974359 , 4183.07692308 , 4187.17948718 , 4187.69230769 , 4196.41025641 , 4197.43589744 , 4200.51282051 , 4223.58974359 , 4953.84615385 , 4105.64102564 , 4201.02564103 , 1.26680107863 , 0.0 , 0.0 , 0.0 , 0.0 , 0.0 , 

2016-10-05T18:35:00.115000 , 42.0 , 0.0 , 0.0 , 4282.05128205 , 4283.58974359 , 4296.41025641 , 4309.23076923 , 4187.69230769 , 4190.25641026 , 4190.76923077 , 4195.8974359 , 4195.38461538 , 4199.48717949 , 4217.94871795 , 4953.33333333 , 4104.1025641 , 4199.48717949 , 1.27411724246 , 0.0 , 0.0 , 0.0 , 0.0 , 0.0 , 

2016-10-05T18:35:00.115000 , 43.0 , 0.0 , 0.0 , 4284.61538462 , 4283.58974359 , 4297.43589744 , 4316.41025641 , 4189.74358974 , 4190.76923077 , 4189.74358974 , 4197.43589744 , 4196.92307692 , 4198.97435897 , 4225.64102564 , 4948.71794872 , 4106.15384615 , 4202.56410256 , 1.28143340628 , 0.0 , 0.0 , 0.0 , 0.0 , 0.0 , 

2016-10-05T18:35:00.116000 , 44.0 , 0.0 , 0.0 , 4295.8974359 , 4298.97435897 , 4307.17948718 , 4324.61538462 , 4200.0 , 4202.56410256 , 4197.43589744 , 4194.87179487 , 4194.35897436 , 4195.8974359 , 4218.46153846 , 4949.74358974 , 4090.76923077 , 4203.07692308 , 1.28874957011 , 0.0 , 0.0 , 0.0 , 0.0 , 0.0 , 

2016-10-05T18:35:00.116000 , 45.0 , 0.0 , 0.0 , 4304.61538462 , 4305.12820513 , 4308.71794872 , 4334.35897436 , 4209.23076923 , 4204.61538462 , 4197.43589744 , 4196.41025641 , 4193.33333333 , 4199.48717949 , 4220.51282051 , 4948.20512821 , 4091.79487179 , 4204.61538462 , 1.29606573394 , 0.0 , 0.0 , 0.0 , 0.0 , 0.0 , 

2016-10-05T18:35:00.116000 , 46.0 , 0.0 , 0.0 , 4333.84615385 , 4331.79487179 , 4332.82051282 , 4355.38461538 , 4221.02564103 , 4217.43589744 , 4207.69230769 , 4198.46153846 , 4190.76923077 , 4200.0 , 4215.38461538 , 4948.71794872 , 4073.84615385 , 4204.1025641 , 1.30338189776 , 0.0 , 0.0 , 0.0 , 0.0 , 0.0 , 

2016-10-05T18:35:00.116000 , 47.0 , 0.0 , 0.0 , 4326.66666667 , 4322.05128205 , 4334.35897436 , 4337.43589744 , 4203.58974359 , 4203.58974359 , 4195.38461538 , 4197.43589744 , 4193.33333333 , 4198.97435897 , 4225.64102564 , 4945.12820513 , 4071.79487179 , 4206.66666667 , 1.31069806159 , 0.0 , 0.0 , 0.0 , 0.0 , 0.0 , 

2016-10-05T18:35:00.116000 , 48.0 , 0.0 , 0.0 , 4332.30769231 , 4313.84615385 , 4351.79487179 , 4356.41025641 , 4194.35897436 , 4192.30769231 , 4185.64102564 , 4194.35897436 , 4197.94871795 , 4197.94871795 , 4214.35897436 , 4953.33333333 , 4052.30769231 , 4203.07692308 , 1.31801422542 , 0.0 , 0.0 , 0.0 , 0.0 , 0.0 , 

2016-10-05T18:35:00.116000 , 49.0 , 0.0 , 0.0 , 4314.35897436 , 4289.74358974 , 4338.46153846 , 4348.20512821 , 4195.38461538 , 4186.66666667 , 4182.56410256 , 4197.43589744 , 4201.02564103 , 4203.58974359 , 4221.02564103 , 4952.82051282 , 4064.61538462 , 4201.02564103 , 1.32533038924 , 0.0 , 0.0 , 0.0 , 0.0 , 0.0 , 

2016-10-05T18:35:00.116000 , 50.0 , 0.0 , 0.0 , 4318.46153846 , 4305.12820513 , 4350.76923077 , 4345.12820513 , 4198.46153846 , 4197.43589744 , 4194.87179487 , 4196.41025641 , 4196.41025641 , 4201.02564103 , 4209.74358974 , 4954.87179487 , 4042.05128205 , 4200.0 , 1.33264655307 , 0.0 , 0.0 , 0.0 , 0.0 , 0.0 , 

2016-10-05T18:35:00.117000 , 51.0 , 0.0 , 0.0 , 4286.66666667 , 4281.02564103 , 4328.20512821 , 4313.33333333 , 4185.64102564 , 4190.25641026 , 4185.64102564 , 4195.38461538 , 4197.94871795 , 4203.07692308 , 4220.51282051 , 4951.79487179 , 4065.12820513 , 4203.07692308 , 1.3399627169 , 0.0 , 0.0 , 0.0 , 0.0 , 0.0 , 

2016-10-05T18:35:00.117000 , 52.0 , 0.0 , 0.0 , 4281.53846154 , 4270.76923077 , 4314.35897436 , 4315.38461538 , 4192.82051282 , 4193.33333333 , 4188.71794872 , 4193.84615385 , 4201.02564103 , 4202.56410256 , 4214.87179487 , 4957.43589744 , 4085.12820513 , 4200.0 , 1.34727888073 , 0.0 , 0.0 , 0.0 , 0.0 , 0.0 , 

2016-10-05T18:35:01.132000 , 60.0 , 0.0 , 0.0 , 4320.0 , 4310.76923077 , 4312.30769231 , 4331.79487179 , 4193.33333333 , 4192.30769231 , 4189.74358974 , 4197.43589744 , 4198.97435897 , 4200.51282051 , 4235.38461538 , 4949.23076923 , 4096.92307692 , 4204.1025641 , 1.40580819134 , 0.0 , 0.0 , 0.0 , 0.0 , 0.0 , 

2016-10-05T18:35:01.132000 , 61.0 , 0.0 , 0.0 , 4320.51282051 , 4304.61538462 , 4334.35897436 , 4342.56410256 , 4185.12820513 , 4184.61538462 , 4188.20512821 , 4194.35897436 , 4195.8974359 , 4198.97435897 , 4218.97435897 , 4952.30769231 , 4072.30769231 , 4202.56410256 , 1.41312435517 , 0.0 , 0.0 , 0.0 , 0.0 , 0.0 , 

2016-10-05T18:35:01.132000 , 62.0 , 0.0 , 0.0 , 4310.25641026 , 4292.82051282 , 4340.51282051 , 4333.84615385 , 4191.28205128 , 4185.64102564 , 4186.66666667 , 4195.38461538 , 4196.41025641 , 4200.51282051 , 4208.71794872 , 4952.30769231 , 4058.46153846 , 4198.97435897 , 1.42044051899 , 0.0 , 0.0 , 0.0 , 0.0 , 0.0 , 

2016-10-05T18:35:01.133000 , 63.0 , 0.0 , 0.0 , 4309.23076923 , 4295.8974359 , 4349.74358974 , 4343.58974359 , 4198.46153846 , 4192.82051282 , 4192.30769231 , 4195.8974359 , 4196.92307692 , 4201.53846154 , 4201.02564103 , 4955.8974359 , 4044.61538462 , 4201.53846154 , 1.42775668282 , 0.0 , 0.0 , 0.0 , 0.0 , 0.0 , 

2016-10-05T18:35:01.133000 , 64.0 , 0.0 , 0.0 , 4293.84615385 , 4285.12820513 , 4336.41025641 , 4333.84615385 , 4183.07692308 , 4180.51282051 , 4182.56410256 , 4196.41025641 , 4197.43589744 , 4202.05128205 , 4208.71794872 , 4954.35897436 , 4056.92307692 , 4206.66666667 , 1.43507284665 , 0.0 , 0.0 , 0.0 , 0.0 , 0.0 , 

2016-10-05T18:35:01.133000 , 65.0 , 0.0 , 0.0 , 4303.07692308 , 4295.8974359 , 4340.51282051 , 4330.76923077 , 4185.12820513 , 4187.69230769 , 4187.17948718 , 4194.87179487 , 4194.35897436 , 4197.94871795 , 4193.33333333 , 4957.94871795 , 4045.12820513 , 4199.48717949 , 1.44238901047 , 0.0 , 0.0 , 0.0 , 0.0 , 0.0 , 

2016-10-05T18:35:01.133000 , 66.0 , 0.0 , 0.0 , 4280.51282051 , 4277.94871795 , 4304.61538462 , 4303.58974359 , 4190.76923077 , 4191.79487179 , 4190.76923077 , 4198.46153846 , 4196.41025641 , 4201.53846154 , 4210.25641026 , 4949.74358974 , 4084.61538462 , 4197.43589744 , 1.4497051743 , 0.0 , 0.0 , 0.0 , 0.0 , 0.0 , 

2016-10-05T18:35:01.134000 , 67.0 , 0.0 , 0.0 , 4285.64102564 , 4284.1025641 , 4299.48717949 , 4319.48717949 , 4196.92307692 , 4201.02564103 , 4202.05128205 , 4194.87179487 , 4196.41025641 , 4200.51282051 , 4209.23076923 , 4954.87179487 , 4097.43589744 , 4200.0 , 1.45702133813 , 0.0 , 0.0 , 0.0 , 0.0 , 0.0 , 

2016-10-05T18:35:01.134000 , 68.0 , 0.0 , 0.0 , 4279.48717949 , 4276.92307692 , 4292.30769231 , 4310.76923077 , 4188.20512821 , 4189.23076923 , 4190.25641026 , 4193.84615385 , 4196.92307692 , 4201.02564103 , 4213.84615385 , 4958.97435897 , 4103.07692308 , 4200.0 , 1.46433750195 , 0.0 , 0.0 , 0.0 , 0.0 , 0.0 , 

2016-10-05T18:35:01.134000 , 69.0 , 0.0 , 0.0 , 4291.79487179 , 4290.76923077 , 4302.56410256 , 4316.41025641 , 4194.87179487 , 4196.92307692 , 4196.41025641 , 4196.41025641 , 4195.8974359 , 4196.41025641 , 4212.82051282 , 4957.43589744 , 4094.35897436 , 4197.94871795 , 1.47165366578 , 0.0 , 0.0 , 0.0 , 0.0 , 0.0 , 

2016-10-05T18:35:01.134000 , 70.0 , 0.0 , 0.0 , 4284.1025641 , 4287.69230769 , 4287.17948718 , 4307.17948718 , 4196.92307692 , 4201.53846154 , 4198.46153846 , 4197.94871795 , 4196.92307692 , 4196.41025641 , 4232.82051282 , 4945.64102564 , 4116.92307692 , 4204.1025641 , 1.47896982961 , 0.0 , 0.0 , 0.0 , 0.0 , 0.0 , 

2016-10-05T18:35:01.134000 , 71.0 , 0.0 , 0.0 , 4316.92307692 , 4319.48717949 , 4313.33333333 , 4341.53846154 , 4203.58974359 , 4209.23076923 , 4205.64102564 , 4196.41025641 , 4193.33333333 , 4195.38461538 , 4222.05128205 , 4949.23076923 , 4093.84615385 , 4204.61538462 , 1.48628599343 , 0.0 , 0.0 , 0.0 , 0.0 , 0.0 , 

2016-10-05T18:35:01.134000 , 72.0 , 0.0 , 0.0 , 4317.94871795 , 4306.15384615 , 4313.33333333 , 4348.71794872 , 4194.35897436 , 4192.82051282 , 4192.30769231 , 4197.94871795 , 4193.84615385 , 4198.46153846 , 4228.71794872 , 4948.20512821 , 4089.23076923 , 4203.58974359 , 1.49360215726 , 0.0 , 0.0 , 0.0 , 0.0 , 0.0 , 

2016-10-05T18:35:01.135000 , 73.0 , 0.0 , 0.0 , 4326.66666667 , 4301.02564103 , 4327.17948718 , 4363.07692308 , 4193.84615385 , 4187.69230769 , 4189.74358974 , 4196.92307692 , 4197.43589744 , 4199.48717949 , 4227.17948718 , 4948.71794872 , 4078.46153846 , 4204.1025641 , 1.50091832109 , 0.0 , 0.0 , 0.0 , 0.0 , 0.0 , 

2016-10-05T18:35:01.135000 , 74.0 , 0.0 , 0.0 , 4327.69230769 , 4307.17948718 , 4332.30769231 , 4340.51282051 , 4196.41025641 , 4193.33333333 , 4192.30769231 , 4193.84615385 , 4197.94871795 , 4201.02564103 , 4223.58974359 , 4947.69230769 , 4076.41025641 , 4207.69230769 , 1.50823448491 , 0.0 , 0.0 , 0.0 , 0.0 , 0.0 , 

2016-10-05T18:35:01.135000 , 75.0 , 0.0 , 0.0 , 4336.92307692 , 4325.12820513 , 4344.61538462 , 4339.48717949 , 4198.46153846 , 4196.92307692 , 4195.38461538 , 4196.92307692 , 4194.87179487 , 4200.0 , 4212.30769231 , 4950.76923077 , 4055.8974359 , 4204.61538462 , 1.51555064874 , 0.0 , 0.0 , 0.0 , 0.0 , 0.0 , 

2016-10-05T18:35:01.135000 , 76.0 , 0.0 , 0.0 , 4320.51282051 , 4304.61538462 , 4339.48717949 , 4343.58974359 , 4188.20512821 , 4185.64102564 , 4184.61538462 , 4200.0 , 4197.43589744 , 4200.0 , 4215.38461538 , 4953.84615385 , 4055.38461538 , 4200.51282051 , 1.52286681257 , 0.0 , 0.0 , 0.0 , 0.0 , 0.0 , 

2016-10-05T18:35:01.135000 , 77.0 , 0.0 , 0.0 , 4298.97435897 , 4288.20512821 , 4335.8974359 , 4330.25641026 , 4185.64102564 , 4183.58974359 , 4181.02564103 , 4197.94871795 , 4202.05128205 , 4203.58974359 , 4211.79487179 , 4956.41025641 , 4063.58974359 , 4200.51282051 , 1.5301829764 , 0.0 , 0.0 , 0.0 , 0.0 , 0.0 , 

2016-10-05T18:35:01.135000 , 78.0 , 0.0 , 0.0 , 4293.84615385 , 4294.35897436 , 4327.17948718 , 4313.84615385 , 4195.8974359 , 4189.74358974 , 4184.61538462 , 4195.38461538 , 4199.48717949 , 4203.07692308 , 4207.69230769 , 4955.38461538 , 4064.61538462 , 4199.48717949 , 1.53749914022 , 0.0 , 0.0 , 0.0 , 0.0 , 0.0 , 

2016-10-05T18:35:01.136000 , 79.0 , 0.0 , 0.0 , 4291.79487179 , 4291.28205128 , 4298.46153846 , 4316.92307692 , 4192.30769231 , 4185.12820513 , 4181.02564103 , 4196.41025641 , 4194.35897436 , 4198.46153846 , 4216.41025641 , 4951.28205128 , 4086.15384615 , 4197.94871795 , 1.54481530405 , 0.0 , 0.0 , 0.0 , 0.0 , 0.0 , 

2016-10-05T18:35:01.136000 , 80.0 , 0.0 , 0.0 , 4289.23076923 , 4284.61538462 , 4286.15384615 , 4320.0 , 4182.05128205 , 4182.56410256 , 4181.02564103 , 4194.87179487 , 4192.82051282 , 4194.35897436 , 4210.76923077 , 4956.41025641 , 4105.64102564 , 4199.48717949 , 1.55213146788 , 0.0 , 0.0 , 0.0 , 0.0 , 0.0 , 

2016-10-05T18:35:01.136000 , 81.0 , 0.0 , 0.0 , 4283.07692308 , 4278.97435897 , 4284.61538462 , 4307.69230769 , 4185.12820513 , 4185.64102564 , 4183.58974359 , 4194.87179487 , 4196.41025641 , 4200.0 , 4218.46153846 , 4958.46153846 , 4118.46153846 , 4202.05128205 , 1.5594476317 , 0.0 , 0.0 , 0.0 , 0.0 , 0.0 , 

2016-10-05T18:35:01.136000 , 82.0 , 0.0 , 0.0 , 4296.92307692 , 4293.33333333 , 4298.97435897 , 4322.05128205 , 4201.02564103 , 4200.51282051 , 4200.51282051 , 4196.41025641 , 4197.43589744 , 4200.51282051 , 4216.92307692 , 4955.8974359 , 4105.64102564 , 4200.51282051 , 1.56676379553 , 0.0 , 0.0 , 0.0 , 0.0 , 0.0 , 

2016-10-05T18:35:01.136000 , 83.0 , 0.0 , 0.0 , 4281.53846154 , 4284.61538462 , 4283.07692308 , 4308.20512821 , 4193.84615385 , 4195.8974359 , 4202.05128205 , 4196.92307692 , 4196.92307692 , 4197.94871795 , 4226.66666667 , 4948.20512821 , 4123.07692308 , 4204.1025641 , 1.57407995936 , 0.0 , 0.0 , 0.0 , 0.0 , 0.0 , 

2016-10-05T18:35:01.136000 , 84.0 , 0.0 , 0.0 , 4297.43589744 , 4307.17948718 , 4293.33333333 , 4320.51282051 , 4200.51282051 , 4203.07692308 , 4205.64102564 , 4193.33333333 , 4194.87179487 , 4192.82051282 , 4216.92307692 , 4954.35897436 , 4111.79487179 , 4205.12820513 , 1.58139612318 , 0.0 , 0.0 , 0.0 , 0.0 , 0.0 , 

2016-10-05T18:35:01.137000 , 85.0 , 0.0 , 0.0 , 4298.97435897 , 4301.53846154 , 4287.17948718 , 4322.05128205 , 4205.64102564 , 4202.05128205 , 4193.84615385 , 4197.43589744 , 4197.94871795 , 4200.51282051 , 4231.28205128 , 4949.23076923 , 4115.38461538 , 4205.64102564 , 1.58871228701 , 0.0 , 0.0 , 0.0 , 0.0 , 0.0 , 

2016-10-05T18:35:01.137000 , 86.0 , 0.0 , 0.0 , 4326.66666667 , 4315.38461538 , 4321.02564103 , 4349.23076923 , 4211.28205128 , 4207.17948718 , 4195.38461538 , 4198.46153846 , 4197.94871795 , 4201.02564103 , 4228.71794872 , 4947.69230769 , 4085.12820513 , 4204.61538462 , 1.59602845084 , 0.0 , 0.0 , 0.0 , 0.0 , 0.0 , 

2016-10-05T18:35:01.138000 , 87.0 , 0.0 , 0.0 , 4325.12820513 , 4312.82051282 , 4334.35897436 , 4348.20512821 , 4201.02564103 , 4193.33333333 , 4186.15384615 , 4197.43589744 , 4195.8974359 , 4197.94871795 , 4232.30769231 , 4946.66666667 , 4075.38461538 , 4205.64102564 , 1.60334461466 , 0.0 , 0.0 , 0.0 , 0.0 , 0.0 , 

2016-10-05T18:35:01.138000 , 88.0 , 0.0 , 0.0 , 4327.69230769 , 4316.92307692 , 4344.1025641 , 4356.41025641 , 4192.82051282 , 4190.25641026 , 4184.1025641 , 4195.8974359 , 4194.87179487 , 4196.92307692 , 4211.79487179 , 4954.35897436 , 4062.56410256 , 4200.51282051 , 1.61066077849 , 0.0 , 0.0 , 0.0 , 0.0 , 0.0 , 

2016-10-05T18:35:01.138000 , 89.0 , 0.0 , 0.0 , 4301.53846154 , 4290.76923077 , 4322.05128205 , 4318.46153846 , 4186.15384615 , 4187.17948718 , 4180.51282051 , 4195.38461538 , 4200.0 , 4200.0 , 4216.41025641 , 4949.74358974 , 4080.0 , 4201.53846154 , 1.61797694232 , 0.0 , 0.0 , 0.0 , 0.0 , 0.0 , 

2016-10-05T18:35:01.138000 , 90.0 , 0.0 , 0.0 , 4309.74358974 , 4305.12820513 , 4336.41025641 , 4324.61538462 , 4197.94871795 , 4197.43589744 , 4193.33333333 , 4194.87179487 , 4197.43589744 , 4196.41025641 , 4212.30769231 , 4952.30769231 , 4065.12820513 , 4204.61538462 , 1.62529310614 , 0.0 , 0.0 , 0.0 , 0.0 , 0.0 , 

2016-10-05T18:35:01.138000 , 91.0 , 0.0 , 0.0 , 4295.38461538 , 4293.84615385 , 4320.51282051 , 4321.53846154 , 4191.28205128 , 4184.1025641 , 4182.05128205 , 4198.46153846 , 4196.41025641 , 4200.0 , 4216.92307692 , 4952.82051282 , 4082.05128205 , 4205.12820513 , 1.63260926997 , 0.0 , 0.0 , 0.0 , 0.0 , 0.0 , 

2016-10-05T18:35:01.138000 , 92.0 , 0.0 , 0.0 , 4300.51282051 , 4294.35897436 , 4321.02564103 , 4323.58974359 , 4194.87179487 , 4187.17948718 , 4184.1025641 , 4196.92307692 , 4200.51282051 , 4202.05128205 , 4204.61538462 , 4955.38461538 , 4072.82051282 , 4201.53846154 , 1.6399254338 , 0.0 , 0.0 , 0.0 , 0.0 , 0.0 , 

2016-10-05T18:35:01.139000 , 93.0 , 0.0 , 0.0 , 4300.51282051 , 4293.33333333 , 4318.46153846 , 4313.84615385 , 4200.51282051 , 4197.94871795 , 4194.35897436 , 4194.35897436 , 4202.05128205 , 4196.41025641 , 4199.48717949 , 4955.38461538 , 4065.64102564 , 4202.56410256 , 1.64724159762 , 0.0 , 0.0 , 0.0 , 0.0 , 0.0 , 

2016-10-05T18:35:01.139000 , 94.0 , 0.0 , 0.0 , 4293.84615385 , 4288.20512821 , 4304.61538462 , 4322.05128205 , 4191.28205128 , 4194.35897436 , 4195.38461538 , 4196.92307692 , 4197.94871795 , 4192.82051282 , 4204.1025641 , 4956.41025641 , 4084.61538462 , 4202.56410256 , 1.65455776145 , 0.0 , 0.0 , 0.0 , 0.0 , 0.0 , 

2016-10-05T18:35:01.140000 , 95.0 , 0.0 , 0.0 , 4287.17948718 , 4281.02564103 , 4283.58974359 , 4315.38461538 , 4184.61538462 , 4187.69230769 , 4186.15384615 , 4197.94871795 , 4197.94871795 , 4197.43589744 , 4222.05128205 , 4952.82051282 , 4114.35897436 , 4201.02564103 , 1.66187392528 , 0.0 , 0.0 , 0.0 , 0.0 , 0.0 , 

2016-10-05T18:35:01.140000 , 96.0 , 0.0 , 0.0 , 4308.71794872 , 4312.30769231 , 4302.56410256 , 4322.56410256 , 4203.07692308 , 4199.48717949 , 4191.79487179 , 4195.8974359 , 4200.51282051 , 4197.94871795 , 4221.02564103 , 4950.25641026 , 4098.46153846 , 4200.0 , 1.6691900891 , 0.0 , 0.0 , 0.0 , 0.0 , 0.0 , 

2016-10-05T18:35:01.140000 , 97.0 , 0.0 , 0.0 , 4324.1025641 , 4331.28205128 , 4320.51282051 , 4342.56410256 , 4208.20512821 , 4208.71794872 , 4203.07692308 , 4194.35897436 , 4197.94871795 , 4194.87179487 , 4208.71794872 , 4952.30769231 , 4080.51282051 , 4202.56410256 , 1.67650625293 , 0.0 , 0.0 , 0.0 , 0.0 , 0.0 , 

2016-10-05T18:35:01.140000 , 98.0 , 0.0 , 0.0 , 4310.76923077 , 4306.66666667 , 4298.46153846 , 4335.8974359 , 4196.41025641 , 4197.94871795 , 4200.0 , 4197.94871795 , 4197.94871795 , 4196.92307692 , 4225.12820513 , 4951.79487179 , 4111.79487179 , 4207.69230769 , 1.68382241676 , 0.0 , 0.0 , 0.0 , 0.0 , 0.0 , 

2016-10-05T18:35:01.141000 , 99.0 , 0.0 , 0.0 , 4314.35897436 , 4305.12820513 , 4297.43589744 , 4330.76923077 , 4200.0 , 4198.97435897 , 4200.0 , 4197.94871795 , 4198.46153846 , 4196.41025641 , 4232.82051282 , 4950.76923077 , 4117.94871795 , 4207.17948718 , 1.69113858058 , 0.0 , 0.0 , 0.0 , 0.0 , 0.0 , 

2016-10-05T18:35:01.144000 , 100.0 , 0.0 , 0.0 , 4310.76923077 , 4305.64102564 , 4301.02564103 , 4328.20512821 , 4195.38461538 , 4194.87179487 , 4192.30769231 , 4198.46153846 , 4195.8974359 , 4197.94871795 , 4232.30769231 , 4946.66666667 , 4108.20512821 , 4205.64102564 , 1.69845474441 , 0.0 , 0.0 , 0.0 , 0.0 , 0.0 , 

2016-10-05T18:35:01.144000 , 101.0 , 0.0 , 0.0 , 4329.23076923 , 4321.02564103 , 4327.69230769 , 4348.20512821 , 4198.97435897 , 4198.97435897 , 4196.41025641 , 4196.41025641 , 4193.84615385 , 4194.35897436 , 4212.82051282 , 4949.74358974 , 4074.87179487 , 4203.07692308 , 1.70577090824 , 0.0 , 0.0 , 0.0 , 0.0 , 0.0 , 

2016-10-05T18:35:01.144000 , 102.0 , 0.0 , 0.0 , 4320.0 , 4306.66666667 , 4336.92307692 , 4337.94871795 , 4194.87179487 , 4189.74358974 , 4186.15384615 , 4198.46153846 , 4199.48717949 , 4195.8974359 , 4220.0 , 4946.15384615 , 4063.07692308 , 4203.58974359 , 1.71308707207 , 0.0 , 0.0 , 0.0 , 0.0 , 0.0 , 

2016-10-05T18:35:01.144000 , 103.0 , 0.0 , 0.0 , 4317.94871795 , 4308.71794872 , 4355.8974359 , 4345.64102564 , 4192.30769231 , 4186.66666667 , 4180.0 , 4198.97435897 , 4198.97435897 , 4200.0 , 4214.87179487 , 4951.28205128 , 4041.02564103 , 4202.05128205 , 1.72040323589 , 0.0 , 0.0 , 0.0 , 0.0 , 0.0 , 

2016-10-05T18:35:01.145000 , 104.0 , 0.0 , 0.0 , 4287.17948718 , 4284.61538462 , 4313.84615385 , 4310.76923077 , 4186.15384615 , 4180.0 , 4174.35897436 , 4200.0 , 4197.94871795 , 4205.64102564 , 4227.69230769 , 4947.17948718 , 4081.53846154 , 4205.12820513 , 1.72771939972 , 0.0 , 0.0 , 0.0 , 0.0 , 0.0 , 

2016-10-05T18:35:01.145000 , 105.0 , 0.0 , 0.0 , 4296.41025641 , 4291.28205128 , 4306.66666667 , 4311.79487179 , 4194.87179487 , 4193.33333333 , 4189.74358974 , 4196.41025641 , 4197.94871795 , 4198.97435897 , 4214.35897436 , 4949.23076923 , 4088.20512821 , 4202.05128205 , 1.73503556355 , 0.0 , 0.0 , 0.0 , 0.0 , 0.0 , 

2016-10-05T18:35:01.145000 , 106.0 , 0.0 , 0.0 , 4283.07692308 , 4272.82051282 , 4302.05128205 , 4310.25641026 , 4189.74358974 , 4188.20512821 , 4183.07692308 , 4197.43589744 , 4200.51282051 , 4198.46153846 , 4217.43589744 , 4951.79487179 , 4090.76923077 , 4200.0 , 1.74235172737 , 0.0 , 0.0 , 0.0 , 0.0 , 0.0 , 

2016-10-05T18:35:01.145000 , 107.0 , 0.0 , 0.0 , 4283.58974359 , 4272.30769231 , 4302.56410256 , 4317.43589744 , 4191.28205128 , 4188.71794872 , 4184.61538462 , 4196.92307692 , 4196.92307692 , 4198.46153846 , 4205.12820513 , 4960.51282051 , 4083.07692308 , 4197.94871795 , 1.7496678912 , 0.0 , 0.0 , 0.0 , 0.0 , 0.0 , 

2016-10-05T18:35:01.145000 , 108.0 , 0.0 , 0.0 , 4279.48717949 , 4270.25641026 , 4285.64102564 , 4302.56410256 , 4189.23076923 , 4184.61538462 , 4187.69230769 , 4195.38461538 , 4195.8974359 , 4198.46153846 , 4216.92307692 , 4953.84615385 , 4101.53846154 , 4202.56410256 , 1.75698405503 , 0.0 , 0.0 , 0.0 , 0.0 , 0.0 , 

2016-10-05T18:35:01.146000 , 109.0 , 0.0 , 0.0 , 4304.61538462 , 4296.92307692 , 4312.82051282 , 4328.71794872 , 4191.79487179 , 4192.30769231 , 4197.94871795 , 4194.35897436 , 4194.35897436 , 4194.87179487 , 4219.48717949 , 4954.35897436 , 4086.66666667 , 4202.56410256 , 1.76430021885 , 0.0 , 0.0 , 0.0 , 0.0 , 0.0 , 

2016-10-05T18:35:01.146000 , 110.0 , 0.0 , 0.0 , 4290.76923077 , 4292.30769231 , 4303.58974359 , 4316.41025641 , 4193.33333333 , 4191.79487179 , 4192.30769231 , 4195.8974359 , 4195.8974359 , 4196.41025641 , 4225.64102564 , 4952.82051282 , 4095.8974359 , 4202.56410256 , 1.77161638268 , 0.0 , 0.0 , 0.0 , 0.0 , 0.0 , 

2016-10-05T18:35:01.147000 , 111.0 , 0.0 , 0.0 , 4302.56410256 , 4308.20512821 , 4307.69230769 , 4325.12820513 , 4207.17948718 , 4207.17948718 , 4204.1025641 , 4195.38461538 , 4196.41025641 , 4198.46153846 , 4221.02564103 , 4946.66666667 , 4090.76923077 , 4204.61538462 , 1.77893254651 , 0.0 , 0.0 , 0.0 , 0.0 , 0.0 , 

2016-10-05T18:35:01.147000 , 112.0 , 0.0 , 0.0 , 4315.8974359 , 4314.35897436 , 4312.30769231 , 4339.48717949 , 4205.12820513 , 4210.76923077 , 4207.69230769 , 4195.38461538 , 4196.92307692 , 4198.46153846 , 4230.25641026 , 4942.56410256 , 4096.41025641 , 4208.20512821 , 1.78624871033 , 0.0 , 0.0 , 0.0 , 0.0 , 0.0 , 

2016-10-05T18:35:01.147000 , 113.0 , 0.0 , 0.0 , 4313.33333333 , 4310.25641026 , 4304.1025641 , 4336.41025641 , 4195.8974359 , 4196.92307692 , 4195.38461538 , 4197.94871795 , 4197.94871795 , 4197.43589744 , 4230.76923077 , 4947.69230769 , 4106.66666667 , 4205.12820513 , 1.79356487416 , 0.0 , 0.0 , 0.0 , 0.0 , 0.0 , 

2016-10-05T18:35:01.148000 , 114.0 , 0.0 , 0.0 , 4305.64102564 , 4303.07692308 , 4296.92307692 , 4319.48717949 , 4195.38461538 , 4188.71794872 , 4188.20512821 , 4196.41025641 , 4195.8974359 , 4197.43589744 , 4221.53846154 , 4951.79487179 , 4105.12820513 , 4202.56410256 , 1.80088103799 , 0.0 , 0.0 , 0.0 , 0.0 , 0.0 , 

2016-10-05T18:35:01.148000 , 115.0 , 0.0 , 0.0 , 4314.87179487 , 4310.76923077 , 4318.46153846 , 4335.8974359 , 4201.53846154 , 4196.41025641 , 4193.84615385 , 4192.82051282 , 4194.35897436 , 4198.97435897 , 4223.58974359 , 4951.79487179 , 4090.76923077 , 4203.07692308 , 1.80819720181 , 0.0 , 0.0 , 0.0 , 0.0 , 0.0 , 

2016-10-05T18:35:01.148000 , 116.0 , 0.0 , 0.0 , 4331.28205128 , 4318.46153846 , 4341.53846154 , 4355.8974359 , 4199.48717949 , 4198.97435897 , 4194.35897436 , 4192.30769231 , 4198.46153846 , 4201.02564103 , 4223.58974359 , 4952.82051282 , 4076.41025641 , 4202.56410256 , 1.81551336564 , 0.0 , 0.0 , 0.0 , 0.0 , 0.0 , 

2016-10-05T18:35:01.148000 , 117.0 , 0.0 , 0.0 , 4325.64102564 , 4305.12820513 , 4332.82051282 , 4335.8974359 , 4193.33333333 , 4186.66666667 , 4183.58974359 , 4197.94871795 , 4202.56410256 , 4206.15384615 , 4222.56410256 , 4951.28205128 , 4073.84615385 , 4204.61538462 , 1.82282952947 , 0.0 , 0.0 , 0.0 , 0.0 , 0.0 , 

2016-10-05T18:35:01.148000 , 118.0 , 0.0 , 0.0 , 4315.38461538 , 4300.0 , 4334.35897436 , 4326.66666667 , 4196.92307692 , 4190.25641026 , 4186.15384615 , 4196.92307692 , 4196.92307692 , 4200.51282051 , 4206.15384615 , 4957.94871795 , 4058.97435897 , 4201.53846154 , 1.83014569329 , 0.0 , 0.0 , 0.0 , 0.0 , 0.0 , 

2016-10-05T18:35:01.149000 , 119.0 , 0.0 , 0.0 , 4293.33333333 , 4289.23076923 , 4320.0 , 4312.82051282 , 4192.82051282 , 4191.28205128 , 4188.20512821 , 4194.35897436 , 4192.82051282 , 4197.43589744 , 4214.87179487 , 4955.38461538 , 4078.97435897 , 4198.97435897 , 1.83746185712 , 0.0 , 0.0 , 0.0 , 0.0 , 0.0 , 

2016-10-05T18:35:01.149000 , 120.0 , 0.0 , 0.0 , 4312.82051282 , 4310.76923077 , 4328.20512821 , 4327.17948718 , 4198.46153846 , 4198.97435897 , 4195.8974359 , 4196.92307692 , 4193.84615385 , 4196.41025641 , 4207.69230769 , 4955.8974359 , 4074.35897436 , 4200.51282051 , 1.84477802095 , 0.0 , 0.0 , 0.0 , 0.0 , 0.0 , 

2016-10-05T18:35:01.149000 , 121.0 , 0.0 , 0.0 , 4297.94871795 , 4287.69230769 , 4308.71794872 , 4313.33333333 , 4185.64102564 , 4184.61538462 , 4180.0 , 4200.0 , 4199.48717949 , 4199.48717949 , 4217.94871795 , 4953.84615385 , 4091.79487179 , 4203.58974359 , 1.85209418477 , 0.0 , 0.0 , 0.0 , 0.0 , 0.0 , 

2016-10-05T18:35:01.149000 , 122.0 , 0.0 , 0.0 , 4291.79487179 , 4278.97435897 , 4304.61538462 , 4320.0 , 4185.64102564 , 4186.66666667 , 4183.58974359 , 4195.38461538 , 4198.46153846 , 4197.94871795 , 4217.94871795 , 4955.8974359 , 4102.56410256 , 4202.05128205 , 1.8594103486 , 0.0 , 0.0 , 0.0 , 0.0 , 0.0 , 

2016-10-05T18:35:01.149000 , 123.0 , 0.0 , 0.0 , 4282.05128205 , 4277.94871795 , 4288.71794872 , 4307.17948718 , 4193.33333333 , 4190.76923077 , 4190.25641026 , 4195.38461538 , 4195.8974359 , 4198.97435897 , 4232.82051282 , 4949.74358974 , 4122.56410256 , 4203.07692308 , 1.86672651243 , 0.0 , 0.0 , 0.0 , 0.0 , 0.0 , 

2016-10-05T18:35:01.149000 , 124.0 , 0.0 , 0.0 , 4309.23076923 , 4309.74358974 , 4313.33333333 , 4331.79487179 , 4203.58974359 , 4201.53846154 , 4199.48717949 , 4194.87179487 , 4196.41025641 , 4196.41025641 , 4223.07692308 , 4952.82051282 , 4091.28205128 , 4201.53846154 , 1.87404267625 , 0.0 , 0.0 , 0.0 , 0.0 , 0.0 , 

2016-10-05T18:35:01.150000 , 125.0 , 0.0 , 0.0 , 4298.97435897 , 4296.92307692 , 4300.51282051 , 4324.61538462 , 4195.38461538 , 4190.76923077 , 4188.71794872 , 4195.38461538 , 4200.0 , 4198.97435897 , 4227.69230769 , 4949.74358974 , 4095.38461538 , 4202.56410256 , 1.88135884008 , 0.0 , 0.0 , 0.0 , 0.0 , 0.0 , 

2016-10-05T18:35:01.150000 , 126.0 , 0.0 , 0.0 , 4315.8974359 , 4312.30769231 , 4306.66666667 , 4338.46153846 , 4203.58974359 , 4199.48717949 , 4200.0 , 4196.41025641 , 4195.38461538 , 4196.92307692 , 4217.43589744 , 4954.35897436 , 4093.33333333 , 4200.51282051 , 1.88867500391 , 0.0 , 0.0 , 0.0 , 0.0 , 0.0 , 

2016-10-05T18:35:01.150000 , 127.0 , 0.0 , 0.0 , 4323.07692308 , 4322.56410256 , 4304.1025641 , 4338.46153846 , 4207.17948718 , 4206.66666667 , 4204.1025641 , 4199.48717949 , 4192.82051282 , 4196.41025641 , 4228.71794872 , 4951.79487179 , 4103.58974359 , 4203.58974359 , 1.89599116773 , 0.0 , 0.0 , 0.0 , 0.0 , 0.0 , 

2016-10-05T18:35:01.150000 , 128.0 , 0.0 , 0.0 , 4346.66666667 , 4343.07692308 , 4327.69230769 , 4360.51282051 , 4212.30769231 , 4212.82051282 , 4205.64102564 , 4197.43589744 , 4195.8974359 , 4196.92307692 , 4222.56410256 , 4951.28205128 , 4077.43589744 , 4206.66666667 , 1.90330733156 , 0.0 , 0.0 , 0.0 , 0.0 , 0.0 , 

2016-10-05T18:35:01.150000 , 0.0 , 0.0 , 0.0 , 4329.74358974 , 4321.53846154 , 4323.58974359 , 4336.41025641 , 4210.25641026 , 4202.05128205 , 4193.33333333 , 4195.38461538 , 4197.43589744 , 4199.48717949 , 4217.43589744 , 4948.71794872 , 4074.35897436 , 4207.69230769 , 1.91062349539 , 0.0 , 0.0 , 0.0 , 0.0 , 0.0 , 

2016-10-05T18:35:01.150000 , 1.0 , 0.0 , 0.0 , 4309.74358974 , 4302.56410256 , 4325.64102564 , 4320.0 , 4202.05128205 , 4193.84615385 , 4187.69230769 , 4196.92307692 , 4195.8974359 , 4200.0 , 4210.76923077 , 4947.69230769 , 4068.20512821 , 4205.12820513 , 1.91793965922 , 0.0 , 0.0 , 0.0 , 0.0 , 0.0 , 

2016-10-05T18:35:01.151000 , 2.0 , 0.0 , 0.0 , 4299.48717949 , 4300.0 , 4323.07692308 , 4319.48717949 , 4193.84615385 , 4194.35897436 , 4186.15384615 , 4196.41025641 , 4198.46153846 , 4202.05128205 , 4217.94871795 , 4946.15384615 , 4070.76923077 , 4205.12820513 , 1.92525582304 , 0.0 , 0.0 , 0.0 , 0.0 , 0.0 , 

2016-10-05T18:35:01.151000 , 3.0 , 0.0 , 0.0 , 4298.46153846 , 4301.53846154 , 4321.53846154 , 4324.61538462 , 4193.33333333 , 4196.92307692 , 4186.15384615 , 4194.35897436 , 4200.0 , 4202.05128205 , 4216.41025641 , 4951.28205128 , 4072.30769231 , 4204.1025641 , 1.93257198687 , 0.0 , 0.0 , 0.0 , 0.0 , 0.0 , 

2016-10-05T18:35:01.151000 , 4.0 , 0.0 , 0.0 , 4294.87179487 , 4285.64102564 , 4319.48717949 , 4321.53846154 , 4185.12820513 , 4184.1025641 , 4182.05128205 , 4193.84615385 , 4198.46153846 , 4200.0 , 4211.79487179 , 4954.87179487 , 4073.33333333 , 4200.51282051 , 1.9398881507 , 0.0 , 0.0 , 0.0 , 0.0 , 0.0 , 

2016-10-05T18:35:01.151000 , 5.0 , 0.0 , 0.0 , 4289.23076923 , 4278.97435897 , 4298.97435897 , 4315.8974359 , 4185.64102564 , 4180.51282051 , 4185.64102564 , 4196.92307692 , 4197.43589744 , 4199.48717949 , 4213.84615385 , 4954.35897436 , 4091.79487179 , 4198.46153846 , 1.94720431452 , 0.0 , 0.0 , 0.0 , 0.0 , 0.0 , 

2016-10-05T18:35:01.151000 , 6.0 , 0.0 , 0.0 , 4289.74358974 , 4287.69230769 , 4288.20512821 , 4312.82051282 , 4195.8974359 , 4195.8974359 , 4193.84615385 , 4194.87179487 , 4196.41025641 , 4200.0 , 4212.30769231 , 4957.43589744 , 4103.07692308 , 4201.02564103 , 1.95452047835 , 0.0 , 0.0 , 0.0 , 0.0 , 0.0 , 

2016-10-05T18:35:01.151000 , 7.0 , 0.0 , 0.0 , 4280.0 , 4273.84615385 , 4287.17948718 , 4302.56410256 , 4186.66666667 , 4193.33333333 , 4186.66666667 , 4195.8974359 , 4195.8974359 , 4202.05128205 , 4225.12820513 , 4950.25641026 , 4111.28205128 , 4206.66666667 , 1.96183664218 , 0.0 , 0.0 , 0.0 , 0.0 , 0.0 , 

2016-10-05T18:35:01.152000 , 8.0 , 0.0 , 0.0 , 4289.23076923 , 4280.51282051 , 4294.87179487 , 4311.28205128 , 4184.1025641 , 4192.30769231 , 4191.28205128 , 4197.43589744 , 4194.87179487 , 4195.8974359 , 4215.8974359 , 4953.33333333 , 4102.56410256 , 4203.07692308 , 1.969152806 , 0.0 , 0.0 , 0.0 , 0.0 , 0.0 , 

2016-10-05T18:35:01.152000 , 9.0 , 0.0 , 0.0 , 4281.53846154 , 4286.66666667 , 4271.79487179 , 4294.87179487 , 4188.71794872 , 4193.84615385 , 4195.38461538 , 4196.92307692 , 4194.87179487 , 4195.38461538 , 4220.51282051 , 4955.8974359 , 4126.15384615 , 4202.56410256 , 1.97646896983 , 0.0 , 0.0 , 0.0 , 0.0 , 0.0 , 

2016-10-05T18:35:01.152000 , 10.0 , 0.0 , 0.0 , 4305.64102564 , 4312.82051282 , 4295.38461538 , 4319.48717949 , 4206.66666667 , 4211.79487179 , 4206.66666667 , 4194.35897436 , 4193.84615385 , 4195.8974359 , 4215.38461538 , 4956.92307692 , 4105.12820513 , 4206.15384615 , 1.98378513366 , 0.0 , 0.0 , 0.0 , 0.0 , 0.0 , 

2016-10-05T18:35:01.152000 , 11.0 , 0.0 , 0.0 , 4310.25641026 , 4310.76923077 , 4303.07692308 , 4336.41025641 , 4209.23076923 , 4210.76923077 , 4202.05128205 , 4196.41025641 , 4197.43589744 , 4200.51282051 , 4228.20512821 , 4945.12820513 , 4097.94871795 , 4207.17948718 , 1.99110129748 , 0.0 , 0.0 , 0.0 , 0.0 , 0.0 , 

2016-10-05T18:35:01.152000 , 12.0 , 0.0 , 0.0 , 4323.58974359 , 4321.53846154 , 4314.35897436 , 4347.17948718 , 4207.17948718 , 4207.69230769 , 4198.97435897 , 4194.87179487 , 4196.92307692 , 4199.48717949 , 4226.15384615 , 4945.64102564 , 4089.74358974 , 4202.05128205 , 1.99841746131 , 0.0 , 0.0 , 0.0 , 0.0 , 0.0 , 

2016-10-05T18:35:01.153000 , 13.0 , 0.0 , 0.0 , 4312.82051282 , 4308.20512821 , 4314.87179487 , 4321.53846154 , 4194.87179487 , 4192.30769231 , 4187.17948718 , 4195.8974359 , 4195.8974359 , 4199.48717949 , 4238.46153846 , 4946.15384615 , 4095.38461538 , 4204.1025641 , 2.00573362514 , 0.0 , 0.0 , 0.0 , 0.0 , 0.0 , 

2016-10-05T18:35:01.153000 , 14.0 , 0.0 , 0.0 , 4336.41025641 , 4329.74358974 , 4355.8974359 , 4358.46153846 , 4207.69230769 , 4205.12820513 , 4202.05128205 , 4195.8974359 , 4194.35897436 , 4195.8974359 , 4220.0 , 4951.79487179 , 4054.35897436 , 4204.1025641 , 2.01304978896 , 0.0 , 0.0 , 0.0 , 0.0 , 0.0 , 

2016-10-05T18:35:01.153000 , 15.0 , 0.0 , 0.0 , 4316.41025641 , 4313.33333333 , 4336.92307692 , 4348.20512821 , 4205.12820513 , 4198.46153846 , 4192.30769231 , 4195.8974359 , 4197.43589744 , 4200.51282051 , 4222.56410256 , 4949.23076923 , 4063.07692308 , 4202.05128205 , 2.02036595279 , 0.0 , 0.0 , 0.0 , 0.0 , 0.0 , 

2016-10-05T18:35:01.153000 , 16.0 , 0.0 , 0.0 , 4302.05128205 , 4302.05128205 , 4319.48717949 , 4319.48717949 , 4198.46153846 , 4191.79487179 , 4182.56410256 , 4195.8974359 , 4196.41025641 , 4199.48717949 , 4214.35897436 , 4953.84615385 , 4070.25641026 , 4201.02564103 , 2.02768211662 , 0.0 , 0.0 , 0.0 , 0.0 , 0.0 , 

2016-10-05T18:35:01.153000 , 17.0 , 0.0 , 0.0 , 4282.56410256 , 4280.51282051 , 4303.58974359 , 4295.38461538 , 4189.74358974 , 4187.69230769 , 4182.05128205 , 4195.8974359 , 4194.87179487 , 4195.38461538 , 4214.87179487 , 4952.82051282 , 4082.56410256 , 4206.66666667 , 2.03499828044 , 0.0 , 0.0 , 0.0 , 0.0 , 0.0 , 

2016-10-05T18:35:01.153000 , 18.0 , 0.0 , 0.0 , 4293.33333333 , 4290.25641026 , 4310.25641026 , 4321.02564103 , 4195.8974359 , 4192.82051282 , 4191.79487179 , 4194.87179487 , 4195.38461538 , 4197.94871795 , 4209.23076923 , 4953.33333333 , 4075.38461538 , 4204.61538462 , 2.04231444427 , 0.0 , 0.0 , 0.0 , 0.0 , 0.0 , 

2016-10-05T18:35:01.154000 , 19.0 , 0.0 , 0.0 , 4285.12820513 , 4283.07692308 , 4294.87179487 , 4313.84615385 , 4194.35897436 , 4185.12820513 , 4185.12820513 , 4195.38461538 , 4197.94871795 , 4203.07692308 , 4214.87179487 , 4954.35897436 , 4090.76923077 , 4199.48717949 , 2.0496306081 , 0.0 , 0.0 , 0.0 , 0.0 , 0.0 , 

2016-10-05T18:35:01.154000 , 20.0 , 0.0 , 0.0 , 4280.0 , 4283.58974359 , 4286.66666667 , 4305.12820513 , 4189.74358974 , 4185.64102564 , 4188.71794872 , 4196.92307692 , 4198.46153846 , 4196.41025641 , 4211.79487179 , 4955.8974359 , 4110.76923077 , 4201.53846154 , 2.0569431081 , 0.0 , 0.0 , 0.0 , 0.0 , 0.0 , 

2016-10-05T18:35:01.154000 , 21.0 , 0.0 , 0.0 , 4282.56410256 , 4293.84615385 , 4280.0 , 4302.05128205 , 4192.30769231 , 4193.84615385 , 4200.0 , 4194.35897436 , 4195.8974359 , 4191.28205128 , 4215.8974359 , 4951.79487179 , 4118.46153846 , 4204.61538462 , 2.06433763935 , 0.0 , 0.0 , 0.0 , 0.0 , 0.0 , 

2016-10-05T18:35:01.155000 , 22.0 , 0.0 , 0.0 , 4306.66666667 , 4316.92307692 , 4302.56410256 , 4325.12820513 , 4204.1025641 , 4205.12820513 , 4208.20512821 , 4193.84615385 , 4194.35897436 , 4194.87179487 , 4225.12820513 , 4951.79487179 , 4093.33333333 , 4201.02564103 , 2.0716852956 , 0.0 , 0.0 , 0.0 , 0.0 , 0.0 , 

2016-10-05T18:35:01.155000 , 23.0 , 0.0 , 0.0 , 4323.07692308 , 4320.0 , 4318.97435897 , 4346.15384615 , 4202.56410256 , 4205.64102564 , 4204.1025641 , 4195.38461538 , 4193.84615385 , 4197.43589744 , 4224.61538462 , 4952.82051282 , 4085.64102564 , 4200.51282051 , 2.07909043394 , 0.0 , 0.0 , 0.0 , 0.0 , 0.0 , 

2016-10-05T18:35:01.156000 , 24.0 , 0.0 , 0.0 , 4309.74358974 , 4300.51282051 , 4300.0 , 4335.38461538 , 4193.33333333 , 4193.84615385 , 4193.33333333 , 4196.92307692 , 4196.41025641 , 4198.97435897 , 4223.58974359 , 4947.69230769 , 4109.23076923 , 4205.64102564 , 2.08643809019 , 0.0 , 0.0 , 0.0 , 0.0 , 0.0 , 

2016-10-05T18:35:01.157000 , 25.0 , 0.0 , 0.0 , 4314.35897436 , 4313.33333333 , 4308.71794872 , 4336.41025641 , 4206.15384615 , 4206.66666667 , 4206.15384615 , 4195.38461538 , 4195.8974359 , 4194.87179487 , 4217.43589744 , 4949.23076923 , 4097.94871795 , 4204.61538462 , 2.09373887144 , 0.0 , 0.0 , 0.0 , 0.0 , 0.0 , 

2016-10-05T18:35:01.157000 , 26.0 , 0.0 , 0.0 , 4315.8974359 , 4314.35897436 , 4318.97435897 , 4340.51282051 , 4209.23076923 , 4207.69230769 , 4202.56410256 , 4195.38461538 , 4194.35897436 , 4197.43589744 , 4232.82051282 , 4947.17948718 , 4093.33333333 , 4203.58974359 , 2.10107871519 , 0.0 , 0.0 , 0.0 , 0.0 , 0.0 , 

2016-10-05T18:35:01.157000 , 27.0 , 0.0 , 0.0 , 4334.87179487 , 4319.48717949 , 4334.35897436 , 4356.92307692 , 4203.07692308 , 4196.41025641 , 4186.66666667 , 4193.33333333 , 4195.8974359 , 4198.97435897 , 4220.0 , 4948.20512821 , 4076.41025641 , 4202.56410256 , 2.10815293394 , 0.0 , 0.0 , 0.0 , 0.0 , 0.0 , 

2016-10-05T18:35:01.158000 , 28.0 , 0.0 , 0.0 , 4312.82051282 , 4297.43589744 , 4326.15384615 , 4330.25641026 , 4192.30769231 , 4184.1025641 , 4179.48717949 , 4195.8974359 , 4198.97435897 , 4200.51282051 , 4215.38461538 , 4946.15384615 , 4068.20512821 , 4205.12820513 , 2.11522715269 , 0.0 , 0.0 , 0.0 , 0.0 , 0.0 , 

2016-10-05T18:35:01.158000 , 29.0 , 0.0 , 0.0 , 4296.92307692 , 4291.79487179 , 4342.05128205 , 4326.15384615 , 4189.74358974 , 4188.20512821 , 4189.23076923 , 4195.38461538 , 4194.35897436 , 4199.48717949 , 4206.15384615 , 4951.79487179 , 4043.07692308 , 4203.07692308 , 2.12257090269 , 0.0 , 0.0 , 0.0 , 0.0 , 0.0 , 

2016-10-05T18:35:01.158000 , 30.0 , 0.0 , 0.0 , 4279.48717949 , 4274.87179487 , 4314.87179487 , 4310.25641026 , 4177.94871795 , 4173.33333333 , 4169.23076923 , 4193.84615385 , 4196.92307692 , 4205.12820513 , 4216.41025641 , 4946.66666667 , 4078.97435897 , 4201.53846154 , 2.12991465269 , 0.0 , 0.0 , 0.0 , 0.0 , 0.0 , 

2016-10-05T18:35:01.158000 , 31.0 , 0.0 , 0.0 , 4299.48717949 , 4292.82051282 , 4311.79487179 , 4324.1025641 , 4187.69230769 , 4183.07692308 , 4175.38461538 , 4191.28205128 , 4199.48717949 , 4196.92307692 , 4203.07692308 , 4952.30769231 , 4083.58974359 , 4199.48717949 , 2.13725840269 , 0.0 , 0.0 , 0.0 , 0.0 , 0.0 , 

2016-10-05T18:35:01.160000 , 32.0 , 0.0 , 0.0 , 4269.74358974 , 4269.23076923 , 4284.61538462 , 4294.35897436 , 4187.69230769 , 4186.66666667 , 4186.66666667 , 4194.87179487 , 4197.43589744 , 4193.84615385 , 4215.38461538 , 4954.35897436 , 4100.0 , 4200.51282051 , 2.14460215269 , 0.0 , 0.0 , 0.0 , 0.0 , 0.0 , 

2016-10-05T18:35:01.160000 , 33.0 , 0.0 , 0.0 , 4267.69230769 , 4269.23076923 , 4284.61538462 , 4296.41025641 , 4192.82051282 , 4194.87179487 , 4194.87179487 , 4196.92307692 , 4195.38461538 , 4196.92307692 , 4212.82051282 , 4955.38461538 , 4097.43589744 , 4198.97435897 , 2.15194590269 , 0.0 , 0.0 , 0.0 , 0.0 , 0.0 , 

2016-10-05T18:35:01.160000 , 34.0 , 0.0 , 0.0 , 4274.87179487 , 4268.71794872 , 4288.20512821 , 4301.02564103 , 4191.28205128 , 4191.79487179 , 4186.15384615 , 4197.43589744 , 4198.46153846 , 4198.97435897 , 4221.53846154 , 4948.71794872 , 4104.61538462 , 4200.51282051 , 2.15928965269 , 0.0 , 0.0 , 0.0 , 0.0 , 0.0 , 

2016-10-05T18:35:01.161000 , 35.0 , 0.0 , 0.0 , 4296.92307692 , 4287.17948718 , 4305.12820513 , 4321.53846154 , 4193.33333333 , 4198.46153846 , 4195.38461538 , 4195.38461538 , 4195.38461538 , 4191.28205128 , 4215.38461538 , 4952.82051282 , 4093.84615385 , 4201.02564103 , 2.16663340269 , 0.0 , 0.0 , 0.0 , 0.0 , 0.0 , 

2016-10-05T18:35:01.161000 , 36.0 , 0.0 , 0.0 , 4292.30769231 , 4291.28205128 , 4286.15384615 , 4313.33333333 , 4194.35897436 , 4197.43589744 , 4196.92307692 , 4194.35897436 , 4194.35897436 , 4193.33333333 , 4220.0 , 4952.82051282 , 4109.74358974 , 4203.58974359 , 2.17403854103 , 0.0 , 0.0 , 0.0 , 0.0 , 0.0 , 

2016-10-05T18:35:01.161000 , 37.0 , 0.0 , 0.0 , 4313.33333333 , 4316.92307692 , 4303.07692308 , 4334.87179487 , 4203.58974359 , 4200.0 , 4194.87179487 , 4194.35897436 , 4196.92307692 , 4200.0 , 4220.51282051 , 4948.71794872 , 4095.38461538 , 4205.64102564 , 2.18126119728 , 0.0 , 0.0 , 0.0 , 0.0 , 0.0 , 

2016-10-05T18:35:01.162000 , 38.0 , 0.0 , 0.0 , 4321.02564103 , 4316.41025641 , 4313.33333333 , 4337.94871795 , 4202.56410256 , 4197.43589744 , 4191.28205128 , 4195.38461538 , 4196.92307692 , 4200.51282051 , 4229.23076923 , 4943.58974359 , 4090.25641026 , 4206.66666667 , 2.18848385353 , 0.0 , 0.0 , 0.0 , 0.0 , 0.0 , 

2016-10-05T18:35:01.163000 , 39.0 , 0.0 , 0.0 , 4325.12820513 , 4314.87179487 , 4312.30769231 , 4339.48717949 , 4201.02564103 , 4201.53846154 , 4198.97435897 , 4194.87179487 , 4196.92307692 , 4199.48717949 , 4224.1025641 , 4946.66666667 , 4093.33333333 , 4202.05128205 , 2.19570650978 , 0.0 , 0.0 , 0.0 , 0.0 , 0.0 , 

2016-10-05T18:35:01.163000 , 40.0 , 0.0 , 0.0 , 4313.84615385 , 4305.64102564 , 4312.30769231 , 4326.66666667 , 4196.41025641 , 4198.46153846 , 4196.41025641 , 4194.87179487 , 4198.46153846 , 4201.02564103 , 4220.0 , 4948.71794872 , 4088.71794872 , 4199.48717949 , 2.20299947853 , 0.0 , 0.0 , 0.0 , 0.0 , 0.0 , 

2016-10-05T18:35:01.163000 , 41.0 , 0.0 , 0.0 , 4301.02564103 , 4298.97435897 , 4320.0 , 4313.33333333 , 4191.28205128 , 4187.69230769 , 4186.15384615 , 4195.8974359 , 4198.46153846 , 4200.51282051 , 4223.07692308 , 4945.64102564 , 4079.48717949 , 4202.05128205 , 2.21029244728 , 0.0 , 0.0 , 0.0 , 0.0 , 0.0 , 

2016-10-05T18:35:01.163000 , 42.0 , 0.0 , 0.0 , 4309.23076923 , 4308.71794872 , 4331.79487179 , 4323.58974359 , 4192.82051282 , 4188.20512821 , 4183.58974359 , 4192.82051282 , 4195.8974359 , 4198.46153846 , 4217.43589744 , 4949.74358974 , 4066.15384615 , 4202.05128205 , 2.21763619728 , 0.0 , 0.0 , 0.0 , 0.0 , 0.0 , 

2016-10-05T18:35:01.163000 , 43.0 , 0.0 , 0.0 , 4306.66666667 , 4304.61538462 , 4328.20512821 , 4320.51282051 , 4192.30769231 , 4190.25641026 , 4184.61538462 , 4194.35897436 , 4196.41025641 , 4201.02564103 , 4217.94871795 , 4953.33333333 , 4065.12820513 , 4201.53846154 , 2.22497994728 , 0.0 , 0.0 , 0.0 , 0.0 , 0.0 , 

2016-10-05T18:35:01.164000 , 44.0 , 0.0 , 0.0 , 4302.05128205 , 4298.46153846 , 4324.1025641 , 4311.28205128 , 4195.38461538 , 4196.41025641 , 4193.84615385 , 4194.87179487 , 4197.43589744 , 4196.92307692 , 4208.20512821 , 4955.8974359 , 4063.58974359 , 4201.53846154 , 2.23227291603 , 0.0 , 0.0 , 0.0 , 0.0 , 0.0 , 

2016-10-05T18:35:01.164000 , 45.0 , 0.0 , 0.0 , 4281.53846154 , 4282.05128205 , 4297.43589744 , 4301.02564103 , 4190.76923077 , 4190.76923077 , 4192.82051282 , 4194.87179487 , 4197.94871795 , 4196.41025641 , 4214.87179487 , 4949.74358974 , 4094.35897436 , 4205.64102564 , 2.23956588478 , 0.0 , 0.0 , 0.0 , 0.0 , 0.0 , 

2016-10-05T18:35:01.164000 , 46.0 , 0.0 , 0.0 , 4300.51282051 , 4303.07692308 , 4311.79487179 , 4331.28205128 , 4194.87179487 , 4197.94871795 , 4197.43589744 , 4193.84615385 , 4197.94871795 , 4198.97435897 , 4207.69230769 , 4955.8974359 , 4090.25641026 , 4206.66666667 , 2.24685885353 , 0.0 , 0.0 , 0.0 , 0.0 , 0.0 , 

2016-10-05T18:35:01.164000 , 47.0 , 0.0 , 0.0 , 4301.02564103 , 4301.02564103 , 4302.56410256 , 4321.02564103 , 4196.92307692 , 4194.87179487 , 4189.74358974 , 4197.94871795 , 4200.51282051 , 4201.53846154 , 4229.23076923 , 4952.82051282 , 4107.69230769 , 4207.17948718 , 2.25418697853 , 0.0 , 0.0 , 0.0 , 0.0 , 0.0 , 

2016-10-05T18:35:01.164000 , 48.0 , 0.0 , 0.0 , 4303.07692308 , 4306.15384615 , 4293.84615385 , 4317.43589744 , 4204.61538462 , 4200.51282051 , 4195.8974359 , 4194.87179487 , 4196.41025641 , 4194.35897436 , 4232.82051282 , 4951.28205128 , 4114.87179487 , 4201.02564103 , 2.26152291603 , 0.0 , 0.0 , 0.0 , 0.0 , 0.0 , 

2016-10-05T18:35:01.165000 , 49.0 , 0.0 , 0.0 , 4281.53846154 , 4293.33333333 , 4278.97435897 , 4302.05128205 , 4193.84615385 , 4194.35897436 , 4195.8974359 , 4193.84615385 , 4193.84615385 , 4196.41025641 , 4235.38461538 , 4947.17948718 , 4126.66666667 , 4201.02564103 , 2.26885885353 , 0.0 , 0.0 , 0.0 , 0.0 , 0.0 , 

2016-10-05T18:35:01.165000 , 50.0 , 0.0 , 0.0 , 4305.12820513 , 4312.82051282 , 4311.28205128 , 4330.25641026 , 4195.38461538 , 4203.07692308 , 4203.58974359 , 4195.38461538 , 4194.87179487 , 4195.8974359 , 4214.35897436 , 4951.79487179 , 4091.79487179 , 4203.58974359 , 2.27608932228 , 0.0 , 0.0 , 0.0 , 0.0 , 0.0 , 

2016-10-05T18:35:01.165000 , 51.0 , 0.0 , 0.0 , 4301.53846154 , 4296.92307692 , 4298.46153846 , 4321.53846154 , 4189.74358974 , 4193.33333333 , 4188.20512821 , 4196.92307692 , 4196.92307692 , 4200.0 , 4227.69230769 , 4948.20512821 , 4102.05128205 , 4205.64102564 , 2.28331979103 , 0.0 , 0.0 , 0.0 , 0.0 , 0.0 , 

2016-10-05T18:35:01.165000 , 52.0 , 0.0 , 0.0 , 4320.51282051 , 4310.25641026 , 4303.58974359 , 4333.84615385 , 4194.87179487 , 4191.79487179 , 4187.17948718 , 4194.87179487 , 4196.92307692 , 4200.51282051 , 4224.61538462 , 4952.30769231 , 4100.51282051 , 4202.05128205 , 2.29066354103 , 0.0 , 0.0 , 0.0 , 0.0 , 0.0 , 

2016-10-05T18:35:01.165000 , 53.0 , 0.0 , 0.0 , 4333.84615385 , 4324.1025641 , 4316.92307692 , 4345.12820513 , 4204.61538462 , 4192.82051282 , 4187.69230769 , 4193.84615385 , 4201.53846154 , 4200.51282051 , 4230.25641026 , 4946.66666667 , 4093.33333333 , 4207.17948718 , 2.29800729103 , 0.0 , 0.0 , 0.0 , 0.0 , 0.0 , 

2016-10-05T18:35:01.165000 , 54.0 , 0.0 , 0.0 , 4346.15384615 , 4328.71794872 , 4347.17948718 , 4372.30769231 , 4210.76923077 , 4200.51282051 , 4192.30769231 , 4192.82051282 , 4199.48717949 , 4197.94871795 , 4223.58974359 , 4945.12820513 , 4060.0 , 4208.71794872 , 2.30535104103 , 0.0 , 0.0 , 0.0 , 0.0 , 0.0 , 

2016-10-05T18:35:01.166000 , 55.0 , 0.0 , 0.0 , 4308.20512821 , 4284.1025641 , 4327.69230769 , 4334.35897436 , 4190.25641026 , 4187.17948718 , 4182.56410256 , 4193.33333333 , 4195.8974359 , 4200.0 , 4220.0 , 4947.17948718 , 4072.82051282 , 4204.61538462 , 2.31267525978 , 0.0 , 0.0 , 0.0 , 0.0 , 0.0 , 

2016-10-05T18:35:01.166000 , 56.0 , 0.0 , 0.0 , 4300.0 , 4287.69230769 , 4321.53846154 , 4312.30769231 , 4187.17948718 , 4186.66666667 , 4187.69230769 , 4194.87179487 , 4196.92307692 , 4202.05128205 , 4211.79487179 , 4951.79487179 , 4073.84615385 , 4203.07692308 , 2.31999947853 , 0.0 , 0.0 , 0.0 , 0.0 , 0.0 , 

2016-10-05T18:35:01.166000 , 57.0 , 0.0 , 0.0 , 4306.66666667 , 4303.58974359 , 4323.07692308 , 4318.46153846 , 4196.41025641 , 4194.87179487 , 4190.76923077 , 4196.41025641 , 4196.92307692 , 4200.51282051 , 4213.84615385 , 4949.74358974 , 4070.25641026 , 4205.64102564 , 2.32732369728 , 0.0 , 0.0 , 0.0 , 0.0 , 0.0 , 

2016-10-05T18:35:01.166000 , 58.0 , 0.0 , 0.0 , 4294.87179487 , 4285.64102564 , 4317.43589744 , 4320.0 , 4190.25641026 , 4184.61538462 , 4179.48717949 , 4195.8974359 , 4196.92307692 , 4198.97435897 , 4212.30769231 , 4947.69230769 , 4078.97435897 , 4200.51282051 , 2.33471822853 , 0.0 , 0.0 , 0.0 , 0.0 , 0.0 , 

2016-10-05T18:35:01.166000 , 59.0 , 0.0 , 0.0 , 4276.92307692 , 4261.53846154 , 4302.56410256 , 4306.15384615 , 4177.43589744 , 4168.71794872 , 4173.84615385 , 4194.87179487 , 4198.46153846 , 4200.51282051 , 4208.71794872 , 4951.79487179 , 4088.71794872 , 4196.92307692 , 2.34185104103 , 0.0 , 0.0 , 0.0 , 0.0 , 0.0 , 

2016-10-05T18:35:02.170000 , 67.0 , 0.0 , 0.0 , 4336.92307692 , 4315.38461538 , 4344.61538462 , 4356.41025641 , 4193.33333333 , 4189.23076923 , 4186.66666667 , 4196.41025641 , 4196.92307692 , 4200.51282051 , 4216.41025641 , 4951.28205128 , 4067.69230769 , 4201.02564103 , 2.54861051754 , 0.0 , 0.0 , 0.0 , 0.0 , 0.0 , 

2016-10-05T18:35:02.170000 , 68.0 , 0.0 , 0.0 , 4326.66666667 , 4310.25641026 , 4332.82051282 , 4340.0 , 4195.38461538 , 4185.64102564 , 4183.58974359 , 4194.87179487 , 4200.51282051 , 4202.05128205 , 4232.82051282 , 4943.07692308 , 4072.30769231 , 4202.56410256 , 2.55601565588 , 0.0 , 0.0 , 0.0 , 0.0 , 0.0 , 

2016-10-05T18:35:02.170000 , 69.0 , 0.0 , 0.0 , 4326.66666667 , 4316.41025641 , 4349.74358974 , 4348.20512821 , 4199.48717949 , 4192.82051282 , 4186.15384615 , 4193.33333333 , 4199.48717949 , 4201.02564103 , 4213.33333333 , 4948.71794872 , 4048.71794872 , 4201.53846154 , 2.56342079422 , 0.0 , 0.0 , 0.0 , 0.0 , 0.0 , 

2016-10-05T18:35:02.171000 , 70.0 , 0.0 , 0.0 , 4293.84615385 , 4289.23076923 , 4323.07692308 , 4317.43589744 , 4191.28205128 , 4186.66666667 , 4177.43589744 , 4196.41025641 , 4201.53846154 , 4202.05128205 , 4209.23076923 , 4950.76923077 , 4072.30769231 , 4200.51282051 , 2.57082593256 , 0.0 , 0.0 , 0.0 , 0.0 , 0.0 , 

2016-10-05T18:35:02.171000 , 71.0 , 0.0 , 0.0 , 4294.87179487 , 4293.33333333 , 4312.82051282 , 4304.61538462 , 4197.43589744 , 4196.92307692 , 4192.82051282 , 4194.87179487 , 4199.48717949 , 4198.46153846 , 4206.66666667 , 4953.33333333 , 4074.35897436 , 4201.02564103 , 2.5782310709 , 0.0 , 0.0 , 0.0 , 0.0 , 0.0 , 

2016-10-05T18:35:02.171000 , 72.0 , 0.0 , 0.0 , 4287.17948718 , 4283.07692308 , 4299.48717949 , 4295.38461538 , 4190.25641026 , 4186.15384615 , 4183.58974359 , 4193.33333333 , 4193.84615385 , 4197.43589744 , 4215.38461538 , 4951.79487179 , 4081.02564103 , 4203.58974359 , 2.5856216959 , 0.0 , 0.0 , 0.0 , 0.0 , 0.0 , 

2016-10-05T18:35:02.173000 , 73.0 , 0.0 , 0.0 , 4289.74358974 , 4289.23076923 , 4294.35897436 , 4317.43589744 , 4186.15384615 , 4181.02564103 , 4175.8974359 , 4196.92307692 , 4193.33333333 , 4198.97435897 , 4205.64102564 , 4956.41025641 , 4086.66666667 , 4201.02564103 , 2.5930123209 , 0.0 , 0.0 , 0.0 , 0.0 , 0.0 , 

2016-10-05T18:35:02.173000 , 74.0 , 0.0 , 0.0 , 4281.02564103 , 4284.1025641 , 4280.51282051 , 4309.74358974 , 4189.74358974 , 4192.82051282 , 4191.28205128 , 4198.46153846 , 4196.92307692 , 4199.48717949 , 4214.87179487 , 4953.33333333 , 4108.71794872 , 4203.58974359 , 2.6004029459 , 0.0 , 0.0 , 0.0 , 0.0 , 0.0 , 

2016-10-05T18:35:02.174000 , 75.0 , 0.0 , 0.0 , 4293.33333333 , 4293.33333333 , 4298.97435897 , 4315.38461538 , 4196.41025641 , 4204.1025641 , 4207.17948718 , 4195.38461538 , 4194.35897436 , 4196.92307692 , 4222.56410256 , 4950.25641026 , 4102.05128205 , 4204.61538462 , 2.60780808424 , 0.0 , 0.0 , 0.0 , 0.0 , 0.0 , 

2016-10-05T18:35:02.174000 , 76.0 , 0.0 , 0.0 , 4294.35897436 , 4292.82051282 , 4304.1025641 , 4320.51282051 , 4192.30769231 , 4192.82051282 , 4194.35897436 , 4193.33333333 , 4192.82051282 , 4198.97435897 , 4223.58974359 , 4950.25641026 , 4098.97435897 , 4200.0 , 2.61521322258 , 0.0 , 0.0 , 0.0 , 0.0 , 0.0 , 

2016-10-05T18:35:02.175000 , 77.0 , 0.0 , 0.0 , 4295.38461538 , 4295.8974359 , 4296.41025641 , 4323.07692308 , 4193.84615385 , 4193.84615385 , 4192.30769231 , 4193.84615385 , 4196.41025641 , 4199.48717949 , 4226.15384615 , 4950.25641026 , 4105.64102564 , 4198.46153846 , 2.62261836092 , 0.0 , 0.0 , 0.0 , 0.0 , 0.0 , 

2016-10-05T18:35:02.175000 , 78.0 , 0.0 , 0.0 , 4314.87179487 , 4315.38461538 , 4300.0 , 4333.84615385 , 4203.07692308 , 4207.69230769 , 4205.64102564 , 4193.84615385 , 4196.92307692 , 4195.38461538 , 4226.66666667 , 4950.25641026 , 4106.15384615 , 4203.07692308 , 2.63002349926 , 0.0 , 0.0 , 0.0 , 0.0 , 0.0 , 

2016-10-05T18:35:02.176000 , 79.0 , 0.0 , 0.0 , 4327.17948718 , 4326.15384615 , 4314.35897436 , 4350.76923077 , 4196.41025641 , 4197.94871795 , 4195.38461538 , 4195.8974359 , 4194.87179487 , 4200.0 , 4225.64102564 , 4947.69230769 , 4097.94871795 , 4204.1025641 , 2.6374286376 , 0.0 , 0.0 , 0.0 , 0.0 , 0.0 , 

2016-10-05T18:35:02.176000 , 80.0 , 0.0 , 0.0 , 4329.23076923 , 4324.61538462 , 4324.61538462 , 4345.64102564 , 4194.35897436 , 4189.23076923 , 4186.15384615 , 4193.84615385 , 4193.33333333 , 4203.07692308 , 4218.46153846 , 4951.79487179 , 4088.20512821 , 4201.53846154 , 2.64480754385 , 0.0 , 0.0 , 0.0 , 0.0 , 0.0 , 

2016-10-05T18:35:02.176000 , 81.0 , 0.0 , 0.0 , 4311.28205128 , 4308.71794872 , 4307.17948718 , 4316.92307692 , 4198.97435897 , 4191.28205128 , 4185.12820513 , 4194.35897436 , 4196.41025641 , 4201.53846154 , 4226.66666667 , 4947.17948718 , 4103.07692308 , 4204.1025641 , 2.54837890625 , 0.0 , 0.0 , 0.0 , 0.0 , 0.0 , 

2016-10-05T18:35:02.177000 , 82.0 , 0.0 , 0.0 , 4324.1025641 , 4323.58974359 , 4336.41025641 , 4346.66666667 , 4204.61538462 , 4201.53846154 , 4193.33333333 , 4196.92307692 , 4195.8974359 , 4197.94871795 , 4207.17948718 , 4948.71794872 , 4069.23076923 , 4202.05128205 , 2.55620703125 , 0.0 , 0.0 , 0.0 , 0.0 , 0.0 , 

2016-10-05T18:35:02.177000 , 83.0 , 0.0 , 0.0 , 4300.51282051 , 4297.43589744 , 4337.43589744 , 4329.74358974 , 4187.69230769 , 4184.1025641 , 4182.56410256 , 4197.43589744 , 4194.87179487 , 4203.07692308 , 4210.25641026 , 4951.28205128 , 4062.05128205 , 4202.05128205 , 2.56405859375 , 0.0 , 0.0 , 0.0 , 0.0 , 0.0 , 

2016-10-05T18:35:02.177000 , 84.0 , 0.0 , 0.0 , 4290.76923077 , 4282.05128205 , 4324.1025641 , 4305.64102564 , 4182.05128205 , 4178.97435897 , 4180.51282051 , 4193.84615385 , 4195.38461538 , 4201.53846154 , 4208.71794872 , 4956.41025641 , 4069.23076923 , 4200.51282051 , 2.57241015625 , 0.0 , 0.0 , 0.0 , 0.0 , 0.0 , 

2016-10-05T18:35:02.178000 , 85.0 , 0.0 , 0.0 , 4285.12820513 , 4279.48717949 , 4298.46153846 , 4305.64102564 , 4186.15384615 , 4181.02564103 , 4178.46153846 , 4196.41025641 , 4196.92307692 , 4201.02564103 , 4214.87179487 , 4951.28205128 , 4098.97435897 , 4198.97435897 , 2.58081529459 , 0.0 , 0.0 , 0.0 , 0.0 , 0.0 , 

2016-10-05T18:35:02.178000 , 86.0 , 0.0 , 0.0 , 4300.0 , 4296.92307692 , 4314.87179487 , 4338.97435897 , 4196.92307692 , 4192.82051282 , 4189.23076923 , 4194.35897436 , 4191.79487179 , 4195.8974359 , 4205.64102564 , 4953.84615385 , 4080.51282051 , 4197.94871795 , 2.58912388834 , 0.0 , 0.0 , 0.0 , 0.0 , 0.0 , 

2016-10-05T18:35:02.178000 , 87.0 , 0.0 , 0.0 , 4273.84615385 , 4264.61538462 , 4291.79487179 , 4306.15384615 , 4183.58974359 , 4175.38461538 , 4180.0 , 4193.84615385 , 4193.84615385 , 4198.46153846 , 4226.15384615 , 4952.30769231 , 4098.97435897 , 4204.61538462 , 2.59743248209 , 0.0 , 0.0 , 0.0 , 0.0 , 0.0 , 

2016-10-05T18:35:02.178000 , 88.0 , 0.0 , 0.0 , 4289.23076923 , 4278.97435897 , 4294.87179487 , 4314.35897436 , 4184.1025641 , 4181.02564103 , 4185.12820513 , 4196.92307692 , 4196.41025641 , 4200.0 , 4213.84615385 , 4957.94871795 , 4101.53846154 , 4202.05128205 , 2.60583762043 , 0.0 , 0.0 , 0.0 , 0.0 , 0.0 , 

2016-10-05T18:35:02.178000 , 89.0 , 0.0 , 0.0 , 4287.17948718 , 4285.12820513 , 4281.53846154 , 4308.20512821 , 4182.56410256 , 4184.61538462 , 4184.61538462 , 4197.94871795 , 4196.41025641 , 4200.51282051 , 4218.97435897 , 4952.30769231 , 4118.97435897 , 4202.56410256 , 2.61418527668 , 0.0 , 0.0 , 0.0 , 0.0 , 0.0 , 

2016-10-05T18:35:02.179000 , 90.0 , 0.0 , 0.0 , 4303.07692308 , 4303.58974359 , 4294.35897436 , 4320.0 , 4196.92307692 , 4194.87179487 , 4196.92307692 , 4194.87179487 , 4193.33333333 , 4197.43589744 , 4225.64102564 , 4949.74358974 , 4105.12820513 , 4206.66666667 , 2.62253293293 , 0.0 , 0.0 , 0.0 , 0.0 , 0.0 , 

2016-10-05T18:35:02.179000 , 91.0 , 0.0 , 0.0 , 4312.30769231 , 4307.69230769 , 4301.53846154 , 4335.38461538 , 4208.20512821 , 4201.02564103 , 4199.48717949 , 4194.87179487 , 4196.41025641 , 4200.51282051 , 4233.33333333 , 4949.74358974 , 4100.51282051 , 4205.12820513 , 2.63092355793 , 0.0 , 0.0 , 0.0 , 0.0 , 0.0 , 

2016-10-05T18:35:02.179000 , 92.0 , 0.0 , 0.0 , 4328.71794872 , 4321.02564103 , 4321.53846154 , 4360.0 , 4209.23076923 , 4208.20512821 , 4203.58974359 , 4194.35897436 , 4197.94871795 , 4200.51282051 , 4226.15384615 , 4950.25641026 , 4085.64102564 , 4203.07692308 , 2.63931418293 , 0.0 , 0.0 , 0.0 , 0.0 , 0.0 , 

2016-10-05T18:35:02.180000 , 93.0 , 0.0 , 0.0 , 4320.0 , 4314.35897436 , 4321.53846154 , 4334.87179487 , 4197.43589744 , 4199.48717949 , 4198.46153846 , 4193.33333333 , 4195.38461538 , 4198.97435897 , 4233.33333333 , 4942.05128205 , 4082.56410256 , 4205.64102564 , 2.64770480793 , 0.0 , 0.0 , 0.0 , 0.0 , 0.0 , 

2016-10-05T18:35:02.180000 , 94.0 , 0.0 , 0.0 , 4322.56410256 , 4313.84615385 , 4325.64102564 , 4332.82051282 , 4196.92307692 , 4191.79487179 , 4192.82051282 , 4195.38461538 , 4196.92307692 , 4201.02564103 , 4229.74358974 , 4945.64102564 , 4076.41025641 , 4202.56410256 , 2.65596652668 , 0.0 , 0.0 , 0.0 , 0.0 , 0.0 , 

2016-10-05T18:35:02.180000 , 95.0 , 0.0 , 0.0 , 4311.79487179 , 4295.38461538 , 4321.53846154 , 4330.25641026 , 4196.92307692 , 4186.66666667 , 4182.56410256 , 4195.38461538 , 4199.48717949 , 4203.58974359 , 4225.64102564 , 4952.30769231 , 4080.0 , 4201.02564103 , 2.66422824543 , 0.0 , 0.0 , 0.0 , 0.0 , 0.0 , 

2016-10-05T18:35:02.180000 , 96.0 , 0.0 , 0.0 , 4295.8974359 , 4287.69230769 , 4327.17948718 , 4316.41025641 , 4192.30769231 , 4187.17948718 , 4176.92307692 , 4195.38461538 , 4198.46153846 , 4203.58974359 , 4229.23076923 , 4950.76923077 , 4072.82051282 , 4203.58974359 , 2.67248996418 , 0.0 , 0.0 , 0.0 , 0.0 , 0.0 , 

2016-10-05T18:35:02.181000 , 97.0 , 0.0 , 0.0 , 4306.66666667 , 4311.79487179 , 4338.46153846 , 4324.61538462 , 4197.94871795 , 4194.87179487 , 4185.12820513 , 4194.87179487 , 4196.41025641 , 4200.0 , 4224.61538462 , 4952.82051282 , 4057.94871795 , 4201.53846154 , 2.68075168293 , 0.0 , 0.0 , 0.0 , 0.0 , 0.0 , 

2016-10-05T18:35:02.181000 , 98.0 , 0.0 , 0.0 , 4296.41025641 , 4294.87179487 , 4310.76923077 , 4317.43589744 , 4195.38461538 , 4188.71794872 , 4183.07692308 , 4195.8974359 , 4199.48717949 , 4200.51282051 , 4224.61538462 , 4954.35897436 , 4083.58974359 , 4200.51282051 , 2.68913449543 , 0.0 , 0.0 , 0.0 , 0.0 , 0.0 , 

2016-10-05T18:35:02.181000 , 99.0 , 0.0 , 0.0 , 4287.69230769 , 4273.33333333 , 4302.05128205 , 4309.23076923 , 4192.30769231 , 4187.69230769 , 4184.1025641 , 4194.35897436 , 4198.46153846 , 4200.0 , 4204.1025641 , 4958.46153846 , 4085.12820513 , 4203.58974359 , 2.69751730793 , 0.0 , 0.0 , 0.0 , 0.0 , 0.0 , 

2016-10-05T18:35:02.182000 , 100.0 , 0.0 , 0.0 , 4285.64102564 , 4277.43589744 , 4293.84615385 , 4303.07692308 , 4184.61538462 , 4182.56410256 , 4181.02564103 , 4194.87179487 , 4195.8974359 , 4199.48717949 , 4206.66666667 , 4954.87179487 , 4090.76923077 , 4206.15384615 , 2.70590012043 , 0.0 , 0.0 , 0.0 , 0.0 , 0.0 , 

2016-10-05T18:35:02.183000 , 101.0 , 0.0 , 0.0 , 4299.48717949 , 4300.51282051 , 4293.33333333 , 4318.46153846 , 4187.17948718 , 4188.71794872 , 4191.28205128 , 4192.30769231 , 4193.33333333 , 4192.82051282 , 4209.74358974 , 4956.92307692 , 4097.43589744 , 4202.56410256 , 2.71420480793 , 0.0 , 0.0 , 0.0 , 0.0 , 0.0 , 

2016-10-05T18:35:02.193000 , 102.0 , 0.0 , 0.0 , 4273.84615385 , 4273.84615385 , 4276.41025641 , 4297.43589744 , 4184.1025641 , 4185.12820513 , 4187.17948718 , 4194.87179487 , 4195.8974359 , 4193.84615385 , 4222.05128205 , 4951.28205128 , 4117.94871795 , 4202.05128205 , 2.72250949543 , 0.0 , 0.0 , 0.0 , 0.0 , 0.0 , 

2016-10-05T18:35:02.199000 , 103.0 , 0.0 , 0.0 , 4287.17948718 , 4284.61538462 , 4296.41025641 , 4312.82051282 , 4189.74358974 , 4192.30769231 , 4189.74358974 , 4194.87179487 , 4195.38461538 , 4198.46153846 , 4210.76923077 , 4954.35897436 , 4096.92307692 , 4201.02564103 , 2.73086887043 , 0.0 , 0.0 , 0.0 , 0.0 , 0.0 , 

2016-10-05T18:35:02.210000 , 104.0 , 0.0 , 0.0 , 4289.74358974 , 4295.38461538 , 4284.1025641 , 4307.17948718 , 4192.82051282 , 4193.33333333 , 4186.15384615 , 4193.84615385 , 4196.92307692 , 4205.12820513 , 4226.66666667 , 4949.23076923 , 4116.41025641 , 4203.58974359 , 2.73918527668 , 0.0 , 0.0 , 0.0 , 0.0 , 0.0 , 

2016-10-05T18:35:02.210000 , 105.0 , 0.0 , 0.0 , 4313.84615385 , 4322.05128205 , 4299.48717949 , 4328.20512821 , 4209.74358974 , 4210.76923077 , 4201.53846154 , 4193.33333333 , 4197.94871795 , 4199.48717949 , 4221.53846154 , 4949.23076923 , 4109.74358974 , 4201.02564103 , 2.74755637043 , 0.0 , 0.0 , 0.0 , 0.0 , 0.0 , 

2016-10-05T18:35:02.211000 , 106.0 , 0.0 , 0.0 , 4308.20512821 , 4303.58974359 , 4302.05128205 , 4336.92307692 , 4202.05128205 , 4201.53846154 , 4196.41025641 , 4196.41025641 , 4196.92307692 , 4198.46153846 , 4227.17948718 , 4947.17948718 , 4104.61538462 , 4202.05128205 , 2.75595090168 , 0.0 , 0.0 , 0.0 , 0.0 , 0.0 , 

2016-10-05T18:35:02.221000 , 107.0 , 0.0 , 0.0 , 4321.02564103 , 4308.20512821 , 4330.76923077 , 4356.92307692 , 4193.84615385 , 4191.28205128 , 4186.15384615 , 4194.35897436 , 4194.87179487 , 4200.0 , 4217.94871795 , 4953.84615385 , 4070.76923077 , 4202.56410256 , 2.76434543293 , 0.0 , 0.0 , 0.0 , 0.0 , 0.0 , 

2016-10-05T18:35:02.232000 , 108.0 , 0.0 , 0.0 , 4314.35897436 , 4307.69230769 , 4329.23076923 , 4327.69230769 , 4195.38461538 , 4189.74358974 , 4183.07692308 , 4194.35897436 , 4196.41025641 , 4201.02564103 , 4224.61538462 , 4952.30769231 , 4068.71794872 , 4204.61538462 , 2.77266183918 , 0.0 , 0.0 , 0.0 , 0.0 , 0.0 , 

2016-10-05T18:35:02.238000 , 109.0 , 0.0 , 0.0 , 4325.12820513 , 4319.48717949 , 4334.87179487 , 4336.92307692 , 4203.58974359 , 4203.58974359 , 4201.02564103 , 4195.38461538 , 4193.84615385 , 4197.43589744 , 4220.0 , 4951.28205128 , 4062.56410256 , 4203.58974359 , 2.78097824543 , 0.0 , 0.0 , 0.0 , 0.0 , 0.0 , 

2016-10-05T18:35:02.254000 , 110.0 , 0.0 , 0.0 , 4310.25641026 , 4297.94871795 , 4325.64102564 , 4337.43589744 , 4191.28205128 , 4189.74358974 , 4187.69230769 , 4192.82051282 , 4193.84615385 , 4200.51282051 , 4219.48717949 , 4949.23076923 , 4075.38461538 , 4202.05128205 , 2.78938338377 , 0.0 , 0.0 , 0.0 , 0.0 , 0.0 , 

2016-10-05T18:35:02.256000 , 111.0 , 0.0 , 0.0 , 4302.56410256 , 4291.28205128 , 4331.79487179 , 4322.56410256 , 4190.25641026 , 4181.02564103 , 4175.8974359 , 4193.33333333 , 4198.97435897 , 4202.05128205 , 4208.71794872 , 4953.33333333 , 4066.66666667 , 4201.53846154 , 2.79754744627 , 0.0 , 0.0 , 0.0 , 0.0 , 0.0 , 

2016-10-05T18:35:02.257000 , 112.0 , 0.0 , 0.0 , 4289.74358974 , 4285.64102564 , 4315.38461538 , 4301.02564103 , 4190.76923077 , 4180.51282051 , 4176.92307692 , 4197.43589744 , 4199.48717949 , 4198.97435897 , 4213.33333333 , 4955.8974359 , 4074.35897436 , 4201.02564103 , 2.80571150877 , 0.0 , 0.0 , 0.0 , 0.0 , 0.0 , 

2016-10-05T18:35:02.257000 , 113.0 , 0.0 , 0.0 , 4281.02564103 , 4282.05128205 , 4290.76923077 , 4306.15384615 , 4185.12820513 , 4183.07692308 , 4182.56410256 , 4195.38461538 , 4193.33333333 , 4197.94871795 , 4214.35897436 , 4956.41025641 , 4097.94871795 , 4197.43589744 , 2.81393025877 , 0.0 , 0.0 , 0.0 , 0.0 , 0.0 , 

2016-10-05T18:35:02.257000 , 114.0 , 0.0 , 0.0 , 4275.8974359 , 4274.35897436 , 4284.1025641 , 4305.12820513 , 4180.51282051 , 4182.56410256 , 4179.48717949 , 4191.28205128 , 4194.87179487 , 4198.46153846 , 4211.79487179 , 4954.35897436 , 4101.02564103 , 4197.43589744 , 2.82157088377 , 0.0 , 0.0 , 0.0 , 0.0 , 0.0 , 

2016-10-05T18:35:02.257000 , 115.0 , 0.0 , 0.0 , 4283.07692308 , 4280.51282051 , 4289.23076923 , 4307.69230769 , 4185.64102564 , 4186.15384615 , 4185.12820513 , 4195.38461538 , 4197.94871795 , 4200.0 , 4220.0 , 4952.30769231 , 4100.51282051 , 4202.05128205 , 2.82821150877 , 0.0 , 0.0 , 0.0 , 0.0 , 0.0 , 

2016-10-05T18:35:02.257000 , 116.0 , 0.0 , 0.0 , 4300.0 , 4306.15384615 , 4294.35897436 , 4325.64102564 , 4202.56410256 , 4207.69230769 , 4203.07692308 , 4195.8974359 , 4194.35897436 , 4197.43589744 , 4222.05128205 , 4954.35897436 , 4106.15384615 , 4201.53846154 , 2.83493807127 , 0.0 , 0.0 , 0.0 , 0.0 , 0.0 , 

2016-10-05T18:35:02.257000 , 117.0 , 0.0 , 0.0 , 4299.48717949 , 4307.69230769 , 4289.74358974 , 4322.05128205 , 4205.64102564 , 4208.20512821 , 4203.07692308 , 4195.38461538 , 4193.84615385 , 4198.97435897 , 4226.66666667 , 4951.79487179 , 4111.79487179 , 4201.02564103 , 2.84166463377 , 0.0 , 0.0 , 0.0 , 0.0 , 0.0 , 

2016-10-05T18:35:02.258000 , 118.0 , 0.0 , 0.0 , 4315.38461538 , 4313.84615385 , 4306.66666667 , 4335.38461538 , 4203.07692308 , 4201.02564103 , 4202.56410256 , 4194.35897436 , 4192.82051282 , 4197.94871795 , 4217.94871795 , 4954.35897436 , 4089.74358974 , 4202.56410256 , 2.84851619627 , 0.0 , 0.0 , 0.0 , 0.0 , 0.0 , 

2016-10-05T18:35:02.261000 , 119.0 , 0.0 , 0.0 , 4309.23076923 , 4306.15384615 , 4299.48717949 , 4335.8974359 , 4193.84615385 , 4191.28205128 , 4191.28205128 , 4195.8974359 , 4192.30769231 , 4201.02564103 , 4231.79487179 , 4947.17948718 , 4106.15384615 , 4206.66666667 , 2.85536775877 , 0.0 , 0.0 , 0.0 , 0.0 , 0.0 , 

2016-10-05T18:35:02.268000 , 120.0 , 0.0 , 0.0 , 4325.64102564 , 4324.61538462 , 4319.48717949 , 4346.66666667 , 4204.1025641 , 4204.61538462 , 4198.97435897 , 4195.8974359 , 4192.82051282 , 4198.97435897 , 4226.66666667 , 4947.17948718 , 4092.82051282 , 4204.61538462 , 2.86221932127 , 0.0 , 0.0 , 0.0 , 0.0 , 0.0 , 

2016-10-05T18:35:02.283000 , 121.0 , 0.0 , 0.0 , 4319.48717949 , 4311.28205128 , 4323.58974359 , 4328.20512821 , 4196.92307692 , 4193.84615385 , 4193.33333333 , 4196.92307692 , 4196.92307692 , 4198.97435897 , 4230.25641026 , 4948.71794872 , 4080.0 , 4202.05128205 , 2.86907088377 , 0.0 , 0.0 , 0.0 , 0.0 , 0.0 , 

2016-10-05T18:35:02.295000 , 122.0 , 0.0 , 0.0 , 4326.15384615 , 4306.66666667 , 4339.48717949 , 4344.1025641 , 4184.1025641 , 4181.02564103 , 4183.07692308 , 4193.84615385 , 4195.38461538 , 4197.94871795 , 4215.8974359 , 4954.87179487 , 4060.51282051 , 4199.48717949 , 2.87705916502 , 0.0 , 0.0 , 0.0 , 0.0 , 0.0 , 

2016-10-05T18:35:02.297000 , 123.0 , 0.0 , 0.0 , 4295.8974359 , 4282.56410256 , 4316.92307692 , 4320.0 , 4183.07692308 , 4176.92307692 , 4174.87179487 , 4196.92307692 , 4198.46153846 , 4202.05128205 , 4223.58974359 , 4947.17948718 , 4085.12820513 , 4201.02564103 , 2.88477400877 , 0.0 , 0.0 , 0.0 , 0.0 , 0.0 , 

2016-10-05T18:35:02.297000 , 124.0 , 0.0 , 0.0 , 4296.92307692 , 4292.82051282 , 4323.07692308 , 4310.76923077 , 4199.48717949 , 4195.8974359 , 4201.02564103 , 4196.41025641 , 4198.46153846 , 4196.41025641 , 4205.64102564 , 4953.33333333 , 4066.66666667 , 4196.92307692 , 2.89248885252 , 0.0 , 0.0 , 0.0 , 0.0 , 0.0 , 

2016-10-05T18:35:02.297000 , 125.0 , 0.0 , 0.0 , 4287.17948718 , 4281.02564103 , 4310.76923077 , 4303.07692308 , 4187.17948718 , 4187.69230769 , 4198.46153846 , 4195.38461538 , 4195.38461538 , 4195.8974359 , 4210.76923077 , 4955.38461538 , 4070.25641026 , 4197.94871795 , 2.90020369627 , 0.0 , 0.0 , 0.0 , 0.0 , 0.0 , 

2016-10-05T18:35:02.297000 , 126.0 , 0.0 , 0.0 , 4296.41025641 , 4290.76923077 , 4314.35897436 , 4331.28205128 , 4187.17948718 , 4186.66666667 , 4188.20512821 , 4194.87179487 , 4193.33333333 , 4198.46153846 , 4211.28205128 , 4956.41025641 , 4067.17948718 , 4201.53846154 , 2.90828963377 , 0.0 , 0.0 , 0.0 , 0.0 , 0.0 , 

2016-10-05T18:35:02.298000 , 127.0 , 0.0 , 0.0 , 4281.53846154 , 4277.94871795 , 4296.92307692 , 4316.41025641 , 4188.20512821 , 4183.58974359 , 4183.07692308 , 4194.87179487 , 4195.8974359 , 4200.0 , 4217.43589744 , 4952.30769231 , 4085.64102564 , 4202.56410256 , 2.91637557127 , 0.0 , 0.0 , 0.0 , 0.0 , 0.0 , 

2016-10-05T18:35:02.298000 , 128.0 , 0.0 , 0.0 , 4288.71794872 , 4281.53846154 , 4296.92307692 , 4315.38461538 , 4187.69230769 , 4186.66666667 , 4189.74358974 , 4193.84615385 , 4194.87179487 , 4196.41025641 , 4209.23076923 , 4955.38461538 , 4090.76923077 , 4201.02564103 , 2.92446150877 , 0.0 , 0.0 , 0.0 , 0.0 , 0.0 , 

2016-10-05T18:35:02.298000 , 0.0 , 0.0 , 0.0 , 4284.61538462 , 4282.56410256 , 4280.0 , 4304.1025641 , 4191.79487179 , 4189.74358974 , 4184.61538462 , 4194.35897436 , 4193.84615385 , 4195.8974359 , 4213.84615385 , 4955.38461538 , 4113.33333333 , 4203.07692308 , 2.93254744627 , 0.0 , 0.0 , 0.0 , 0.0 , 0.0 , 

2016-10-05T18:35:02.298000 , 1.0 , 0.0 , 2.0 , 4289.23076923 , 4297.43589744 , 4284.1025641 , 4309.74358974 , 4205.64102564 , 4202.56410256 , 4192.30769231 , 4197.43589744 , 4195.38461538 , 4195.8974359 , 4218.46153846 , 4952.30769231 , 4112.82051282 , 4202.56410256 , 2.94063338377 , 0.0 , 0.0 , 0.0 , 0.0 , 0.0 , 

2016-10-05T18:35:02.298000 , 2.0 , 0.0 , 0.0 , 4294.35897436 , 4297.43589744 , 4296.92307692 , 4316.92307692 , 4201.53846154 , 4204.1025641 , 4197.94871795 , 4196.92307692 , 4196.41025641 , 4195.8974359 , 4227.69230769 , 4945.64102564 , 4104.61538462 , 4202.05128205 , 2.94871932127 , 0.0 , 0.0 , 0.0 , 0.0 , 0.0 , 

2016-10-05T18:35:02.298000 , 3.0 , 0.0 , 0.0 , 4310.76923077 , 4310.76923077 , 4308.71794872 , 4335.8974359 , 4196.41025641 , 4201.53846154 , 4196.41025641 , 4194.35897436 , 4196.92307692 , 4198.46153846 , 4231.28205128 , 4948.20512821 , 4098.46153846 , 4202.56410256 , 2.95680525877 , 0.0 , 0.0 , 0.0 , 0.0 , 0.0 , 

2016-10-05T18:35:02.298000 , 4.0 , 0.0 , 0.0 , 4325.12820513 , 4328.71794872 , 4312.30769231 , 4343.58974359 , 4200.51282051 , 4205.12820513 , 4196.92307692 , 4193.33333333 , 4196.92307692 , 4200.51282051 , 4227.69230769 , 4952.82051282 , 4093.33333333 , 4203.07692308 , 2.96489119627 , 0.0 , 0.0 , 0.0 , 0.0 , 0.0 , 

2016-10-05T18:35:02.299000 , 5.0 , 0.0 , 0.0 , 4326.66666667 , 4319.48717949 , 4314.35897436 , 4339.48717949 , 4199.48717949 , 4203.58974359 , 4196.92307692 , 4198.46153846 , 4197.94871795 , 4201.02564103 , 4232.82051282 , 4947.69230769 , 4092.82051282 , 4202.05128205 , 2.97297713377 , 0.0 , 0.0 , 0.0 , 0.0 , 0.0 , 

2016-10-05T18:35:02.299000 , 6.0 , 0.0 , 0.0 , 4330.25641026 , 4312.82051282 , 4331.79487179 , 4346.66666667 , 4200.51282051 , 4203.07692308 , 4198.46153846 , 4195.38461538 , 4195.8974359 , 4198.97435897 , 4223.07692308 , 4947.69230769 , 4077.43589744 , 4200.0 , 2.98106307127 , 0.0 , 0.0 , 0.0 , 0.0 , 0.0 , 

2016-10-05T18:35:02.299000 , 7.0 , 0.0 , 0.0 , 4313.84615385 , 4306.66666667 , 4330.25641026 , 4338.46153846 , 4196.41025641 , 4193.33333333 , 4186.66666667 , 4192.30769231 , 4195.8974359 , 4204.1025641 , 4223.07692308 , 4947.17948718 , 4073.33333333 , 4203.07692308 , 2.98914900877 , 0.0 , 0.0 , 0.0 , 0.0 , 0.0 , 

2016-10-05T18:35:02.299000 , 8.0 , 0.0 , 0.0 , 4320.51282051 , 4318.46153846 , 4340.51282051 , 4344.61538462 , 4196.41025641 , 4195.38461538 , 4187.69230769 , 4194.87179487 , 4195.8974359 , 4202.05128205 , 4213.33333333 , 4952.30769231 , 4058.46153846 , 4202.56410256 , 2.99729744627 , 0.0 , 0.0 , 0.0 , 0.0 , 0.0 , 

2016-10-05T18:35:02.299000 , 9.0 , 0.0 , 0.0 , 4297.43589744 , 4292.82051282 , 4313.84615385 , 4316.41025641 , 4187.69230769 , 4186.66666667 , 4182.56410256 , 4200.51282051 , 4197.94871795 , 4198.97435897 , 4218.46153846 , 4950.25641026 , 4081.02564103 , 4202.56410256 , 3.00544588377 , 0.0 , 0.0 , 0.0 , 0.0 , 0.0 , 

2016-10-05T18:35:02.299000 , 10.0 , 0.0 , 0.0 , 4293.84615385 , 4289.23076923 , 4313.84615385 , 4317.43589744 , 4193.84615385 , 4190.76923077 , 4186.66666667 , 4197.43589744 , 4195.38461538 , 4197.43589744 , 4198.46153846 , 4954.87179487 , 4069.74358974 , 4198.97435897 , 3.01359432127 , 0.0 , 0.0 , 0.0 , 0.0 , 0.0 , 

2016-10-05T18:35:02.299000 , 11.0 , 0.0 , 0.0 , 4283.58974359 , 4273.84615385 , 4302.05128205 , 4311.28205128 , 4188.20512821 , 4184.61538462 , 4181.02564103 , 4195.38461538 , 4195.38461538 , 4202.05128205 , 4208.71794872 , 4955.8974359 , 4086.66666667 , 4196.92307692 , 3.02174275877 , 0.0 , 0.0 , 0.0 , 0.0 , 0.0 , 

2016-10-05T18:35:02.300000 , 12.0 , 0.0 , 0.0 , 4299.48717949 , 4285.64102564 , 4301.53846154 , 4322.56410256 , 4185.12820513 , 4187.17948718 , 4186.66666667 , 4193.84615385 , 4193.84615385 , 4199.48717949 , 4214.87179487 , 4960.0 , 4098.46153846 , 4196.92307692 , 3.02995369627 , 0.0 , 0.0 , 0.0 , 0.0 , 0.0 , 

2016-10-05T18:35:02.300000 , 13.0 , 0.0 , 0.0 , 4277.94871795 , 4273.84615385 , 4277.43589744 , 4302.05128205 , 4180.51282051 , 4179.48717949 , 4181.53846154 , 4196.41025641 , 4194.87179487 , 4198.46153846 , 4228.71794872 , 4952.30769231 , 4116.41025641 , 4202.05128205 , 3.03816463377 , 0.0 , 0.0 , 0.0 , 0.0 , 0.0 , 

2016-10-05T18:35:02.300000 , 14.0 , 0.0 , 0.0 , 4284.1025641 , 4286.66666667 , 4298.97435897 , 4319.48717949 , 4193.33333333 , 4195.38461538 , 4194.87179487 , 4195.38461538 , 4195.38461538 , 4195.38461538 , 4211.28205128 , 4954.87179487 , 4088.20512821 , 4201.02564103 , 3.04643416502 , 0.0 , 0.0 , 0.0 , 0.0 , 0.0 , 

2016-10-05T18:35:02.300000 , 15.0 , 0.0 , 0.0 , 4278.97435897 , 4276.92307692 , 4291.79487179 , 4304.61538462 , 4197.94871795 , 4200.0 , 4198.97435897 , 4193.33333333 , 4196.41025641 , 4195.8974359 , 4221.53846154 , 4952.82051282 , 4105.64102564 , 4202.05128205 , 3.05474666502 , 0.0 , 0.0 , 0.0 , 0.0 , 0.0 , 

2016-10-05T18:35:02.300000 , 16.0 , 0.0 , 0.0 , 4300.51282051 , 4296.41025641 , 4294.87179487 , 4315.8974359 , 4203.07692308 , 4205.12820513 , 4204.61538462 , 4194.35897436 , 4193.84615385 , 4194.87179487 , 4221.53846154 , 4952.30769231 , 4106.15384615 , 4203.07692308 , 3.06305916502 , 0.0 , 0.0 , 0.0 , 0.0 , 0.0 , 

2016-10-05T18:35:02.300000 , 17.0 , 0.0 , 0.0 , 4302.05128205 , 4297.94871795 , 4292.30769231 , 4329.74358974 , 4195.8974359 , 4198.97435897 , 4199.48717949 , 4195.38461538 , 4193.84615385 , 4198.46153846 , 4224.1025641 , 4949.23076923 , 4104.1025641 , 4205.12820513 , 3.07125838377 , 0.0 , 0.0 , 0.0 , 0.0 , 0.0 , 

2016-10-05T18:35:02.300000 , 18.0 , 0.0 , 0.0 , 4322.56410256 , 4315.8974359 , 4317.94871795 , 4356.92307692 , 4202.56410256 , 4206.66666667 , 4205.64102564 , 4193.33333333 , 4194.35897436 , 4200.0 , 4222.56410256 , 4951.79487179 , 4086.15384615 , 4205.12820513 , 3.07945760252 , 0.0 , 0.0 , 0.0 , 0.0 , 0.0 , 

2016-10-05T18:35:02.301000 , 19.0 , 0.0 , 0.0 , 4331.79487179 , 4322.05128205 , 4330.76923077 , 4346.66666667 , 4207.69230769 , 4207.69230769 , 4202.05128205 , 4195.38461538 , 4194.87179487 , 4201.02564103 , 4230.76923077 , 4950.25641026 , 4082.05128205 , 4204.1025641 , 3.08773494627 , 0.0 , 0.0 , 0.0 , 0.0 , 0.0 , 

2016-10-05T18:35:02.301000 , 20.0 , 0.0 , 0.0 , 4327.69230769 , 4313.84615385 , 4342.05128205 , 4343.58974359 , 4199.48717949 , 4196.41025641 , 4190.76923077 , 4197.43589744 , 4196.92307692 , 4201.02564103 , 4226.66666667 , 4947.17948718 , 4068.20512821 , 4201.02564103 , 3.09601229002 , 0.0 , 0.0 , 0.0 , 0.0 , 0.0 , 

2016-10-05T18:35:02.301000 , 21.0 , 0.0 , 0.0 , 4306.66666667 , 4293.84615385 , 4336.41025641 , 4337.43589744 , 4190.76923077 , 4186.66666667 , 4182.56410256 , 4193.84615385 , 4199.48717949 , 4203.07692308 , 4223.58974359 , 4946.15384615 , 4065.64102564 , 4200.0 , 3.10428963377 , 0.0 , 0.0 , 0.0 , 0.0 , 0.0 , 

2016-10-05T18:35:02.301000 , 22.0 , 0.0 , 0.0 , 4295.8974359 , 4292.30769231 , 4324.1025641 , 4316.41025641 , 4189.74358974 , 4184.1025641 , 4182.05128205 , 4194.87179487 , 4198.46153846 , 4203.07692308 , 4216.41025641 , 4950.25641026 , 4070.76923077 , 4198.46153846 , 3.11262166502 , 0.0 , 0.0 , 0.0 , 0.0 , 0.0 , 

2016-10-05T18:35:02.301000 , 23.0 , 0.0 , 0.0 , 4297.94871795 , 4295.38461538 , 4322.05128205 , 4307.69230769 , 4186.66666667 , 4183.07692308 , 4181.02564103 , 4195.8974359 , 4195.8974359 , 4199.48717949 , 4197.94871795 , 4957.94871795 , 4060.51282051 , 4196.92307692 , 3.12095369627 , 0.0 , 0.0 , 0.0 , 0.0 , 0.0 , 

2016-10-05T18:35:02.301000 , 24.0 , 0.0 , 0.0 , 4280.51282051 , 4277.94871795 , 4302.05128205 , 4301.02564103 , 4186.66666667 , 4184.1025641 , 4177.94871795 , 4195.8974359 , 4197.94871795 , 4202.05128205 , 4202.56410256 , 4955.8974359 , 4075.8974359 , 4199.48717949 , 3.12900057127 , 0.0 , 0.0 , 0.0 , 0.0 , 0.0 , 

2016-10-05T18:35:02.301000 , 25.0 , 0.0 , 0.0 , 4283.07692308 , 4283.58974359 , 4302.05128205 , 4312.82051282 , 4190.25641026 , 4189.74358974 , 4187.69230769 , 4194.87179487 , 4196.41025641 , 4201.02564103 , 4201.02564103 , 4956.41025641 , 4087.69230769 , 4200.0 , 3.13712947752 , 0.0 , 0.0 , 0.0 , 0.0 , 0.0 , 

2016-10-05T18:35:02.302000 , 26.0 , 0.0 , 0.0 , 4291.79487179 , 4285.12820513 , 4301.02564103 , 4318.97435897 , 4175.8974359 , 4171.28205128 , 4181.53846154 , 4195.8974359 , 4193.33333333 , 4198.46153846 , 4208.20512821 , 4954.87179487 , 4105.64102564 , 4200.51282051 , 3.14525838377 , 0.0 , 0.0 , 0.0 , 0.0 , 0.0 , 

2016-10-05T18:35:02.302000 , 27.0 , 0.0 , 0.0 , 4308.71794872 , 4300.51282051 , 4310.25641026 , 4334.87179487 , 4184.61538462 , 4180.51282051 , 4191.28205128 , 4192.30769231 , 4192.30769231 , 4194.35897436 , 4207.69230769 , 4956.92307692 , 4097.94871795 , 4199.48717949 , 3.15352400877 , 0.0 , 0.0 , 0.0 , 0.0 , 0.0 , 

2016-10-05T18:35:02.302000 , 28.0 , 0.0 , 0.0 , 4285.12820513 , 4287.17948718 , 4290.25641026 , 4309.23076923 , 4194.35897436 , 4195.8974359 , 4195.8974359 , 4194.35897436 , 4198.97435897 , 4199.48717949 , 4222.05128205 , 4951.79487179 , 4111.28205128 , 4203.07692308 , 3.16178963377 , 0.0 , 0.0 , 0.0 , 0.0 , 0.0 , 

2016-10-05T18:35:02.302000 , 29.0 , 0.0 , 0.0 , 4302.05128205 , 4304.61538462 , 4296.41025641 , 4320.0 , 4200.51282051 , 4202.56410256 , 4199.48717949 , 4196.41025641 , 4197.94871795 , 4198.97435897 , 4212.82051282 , 4952.82051282 , 4103.58974359 , 4202.56410256 , 3.17005525877 , 0.0 , 0.0 , 0.0 , 0.0 , 0.0 , 

2016-10-05T18:35:02.303000 , 30.0 , 0.0 , 0.0 , 4298.46153846 , 4300.0 , 4276.41025641 , 4314.87179487 , 4195.38461538 , 4189.23076923 , 4187.17948718 , 4197.43589744 , 4196.92307692 , 4200.0 , 4228.71794872 , 4947.17948718 , 4129.23076923 , 4202.56410256 , 3.17832088377 , 0.0 , 0.0 , 0.0 , 0.0 , 0.0 , 

2016-10-05T18:35:02.303000 , 31.0 , 0.0 , 0.0 , 4308.20512821 , 4310.25641026 , 4293.84615385 , 4324.61538462 , 4202.56410256 , 4197.43589744 , 4192.30769231 , 4195.38461538 , 4197.94871795 , 4197.94871795 , 4229.74358974 , 4949.74358974 , 4117.43589744 , 4201.53846154 , 3.18664900877 , 0.0 , 0.0 , 0.0 , 0.0 , 0.0 , 

2016-10-05T18:35:02.303000 , 32.0 , 0.0 , 0.0 , 4306.66666667 , 4298.46153846 , 4303.07692308 , 4312.82051282 , 4192.82051282 , 4192.82051282 , 4191.79487179 , 4196.41025641 , 4200.0 , 4198.97435897 , 4241.02564103 , 4946.66666667 , 4102.05128205 , 4205.64102564 , 3.19497713377 , 0.0 , 0.0 , 0.0 , 0.0 , 0.0 , 

2016-10-05T18:35:02.303000 , 33.0 , 0.0 , 0.0 , 4335.38461538 , 4313.84615385 , 4336.41025641 , 4349.74358974 , 4194.87179487 , 4196.92307692 , 4196.41025641 , 4195.38461538 , 4195.8974359 , 4197.43589744 , 4224.1025641 , 4951.28205128 , 4058.46153846 , 4205.12820513 , 3.20330525877 , 0.0 , 0.0 , 0.0 , 0.0 , 0.0 , 

2016-10-05T18:35:02.303000 , 34.0 , 0.0 , 0.0 , 4327.69230769 , 4311.79487179 , 4341.02564103 , 4351.79487179 , 4198.97435897 , 4196.92307692 , 4187.17948718 , 4196.41025641 , 4195.8974359 , 4202.56410256 , 4221.02564103 , 4949.23076923 , 4056.92307692 , 4204.1025641 , 3.21159822752 , 0.0 , 0.0 , 0.0 , 0.0 , 0.0 , 

2016-10-05T18:35:02.304000 , 35.0 , 0.0 , 0.0 , 4328.20512821 , 4323.07692308 , 4356.92307692 , 4352.82051282 , 4202.56410256 , 4200.51282051 , 4193.33333333 , 4197.94871795 , 4196.41025641 , 4202.56410256 , 4210.76923077 , 4951.28205128 , 4045.64102564 , 4203.07692308 , 3.21994588377 , 0.0 , 0.0 , 0.0 , 0.0 , 0.0 , 

2016-10-05T18:35:02.304000 , 36.0 , 0.0 , 0.0 , 4307.69230769 , 4302.56410256 , 4331.28205128 , 4330.25641026 , 4191.28205128 , 4187.17948718 , 4184.61538462 , 4198.46153846 , 4194.87179487 , 4198.46153846 , 4214.87179487 , 4952.30769231 , 4065.64102564 , 4201.53846154 , 3.22813338377 , 0.0 , 0.0 , 0.0 , 0.0 , 0.0 , 

2016-10-05T18:35:02.304000 , 37.0 , 0.0 , 0.0 , 4298.46153846 , 4292.82051282 , 4309.74358974 , 4320.0 , 4194.87179487 , 4187.17948718 , 4178.46153846 , 4196.41025641 , 4193.84615385 , 4198.46153846 , 4207.69230769 , 4954.35897436 , 4081.02564103 , 4198.46153846 , 3.23637557127 , 0.0 , 0.0 , 0.0 , 0.0 , 0.0 , 

2016-10-05T18:35:02.304000 , 38.0 , 0.0 , 0.0 , 4286.66666667 , 4283.58974359 , 4294.35897436 , 4305.12820513 , 4195.38461538 , 4191.79487179 , 4186.15384615 , 4193.84615385 , 4194.35897436 , 4201.53846154 , 4211.28205128 , 4953.84615385 , 4094.35897436 , 4200.51282051 , 3.24469197752 , 0.0 , 0.0 , 0.0 , 0.0 , 0.0 , 

2016-10-05T18:35:02.305000 , 39.0 , 0.0 , 0.0 , 4280.0 , 4281.02564103 , 4283.07692308 , 4304.61538462 , 4188.20512821 , 4191.28205128 , 4196.41025641 , 4192.82051282 , 4194.87179487 , 4198.97435897 , 4221.02564103 , 4954.35897436 , 4112.30769231 , 4201.53846154 , 3.25300838377 , 0.0 , 0.0 , 0.0 , 0.0 , 0.0 , 

2016-10-05T18:35:02.305000 , 40.0 , 0.0 , 0.0 , 4273.33333333 , 4274.35897436 , 4279.48717949 , 4301.02564103 , 4187.17948718 , 4187.17948718 , 4189.23076923 , 4195.38461538 , 4196.41025641 , 4195.38461538 , 4222.05128205 , 4956.41025641 , 4118.46153846 , 4199.48717949 , 3.26132479002 , 0.0 , 0.0 , 0.0 , 0.0 , 0.0 , 

2016-10-05T18:35:02.305000 , 41.0 , 0.0 , 0.0 , 4276.92307692 , 4274.35897436 , 4293.33333333 , 4301.53846154 , 4191.79487179 , 4188.20512821 , 4187.17948718 , 4200.0 , 4196.92307692 , 4198.46153846 , 4216.41025641 , 4954.87179487 , 4098.97435897 , 4200.0 , 3.26965291502 , 0.0 , 0.0 , 0.0 , 0.0 , 0.0 , 

2016-10-05T18:35:02.306000 , 42.0 , 0.0 , 0.0 , 4298.97435897 , 4300.51282051 , 4309.74358974 , 4324.61538462 , 4199.48717949 , 4201.02564103 , 4201.02564103 , 4197.94871795 , 4195.38461538 , 4197.43589744 , 4211.28205128 , 4956.92307692 , 4083.58974359 , 4203.07692308 , 3.27798104002 , 0.0 , 0.0 , 0.0 , 0.0 , 0.0 , 

2016-10-05T18:35:02.306000 , 43.0 , 0.0 , 0.0 , 4310.76923077 , 4322.56410256 , 4297.43589744 , 4327.69230769 , 4203.58974359 , 4202.56410256 , 4198.97435897 , 4197.43589744 , 4197.43589744 , 4197.43589744 , 4226.15384615 , 4951.79487179 , 4109.74358974 , 4206.66666667 , 3.28630916502 , 0.0 , 0.0 , 0.0 , 0.0 , 0.0 , 

2016-10-05T18:35:02.306000 , 44.0 , 0.0 , 0.0 , 4331.28205128 , 4340.0 , 4304.61538462 , 4334.87179487 , 4210.25641026 , 4202.05128205 , 4194.87179487 , 4196.92307692 , 4194.87179487 , 4197.94871795 , 4218.46153846 , 4949.23076923 , 4107.17948718 , 4206.15384615 , 3.29461775877 , 0.0 , 0.0 , 0.0 , 0.0 , 0.0 , 

2016-10-05T18:35:02.306000 , 45.0 , 0.0 , 0.0 , 4325.64102564 , 4321.02564103 , 4308.71794872 , 4343.58974359 , 4204.1025641 , 4194.35897436 , 4188.20512821 , 4196.92307692 , 4194.35897436 , 4202.56410256 , 4222.56410256 , 4946.66666667 , 4101.53846154 , 4204.61538462 , 3.30199275877 , 0.0 , 0.0 , 0.0 , 0.0 , 0.0 , 

2016-10-05T18:35:02.306000 , 46.0 , 0.0 , 0.0 , 4339.48717949 , 4328.20512821 , 4337.43589744 , 4369.74358974 , 4203.58974359 , 4202.56410256 , 4193.84615385 , 4194.87179487 , 4196.92307692 , 4200.51282051 , 4221.02564103 , 4949.74358974 , 4072.82051282 , 4200.51282051 , 3.30925838377 , 0.0 , 0.0 , 0.0 , 0.0 , 0.0 , 

2016-10-05T18:35:02.306000 , 47.0 , 0.0 , 0.0 , 4320.51282051 , 4311.28205128 , 4330.76923077 , 4336.92307692 , 4190.76923077 , 4190.76923077 , 4184.1025641 , 4195.38461538 , 4199.48717949 , 4203.58974359 , 4234.35897436 , 4944.1025641 , 4076.41025641 , 4204.1025641 , 3.31657088377 , 0.0 , 0.0 , 0.0 , 0.0 , 0.0 , 

2016-10-05T18:35:02.306000 , 48.0 , 0.0 , 0.0 , 4322.05128205 , 4309.23076923 , 4348.20512821 , 4346.66666667 , 4194.87179487 , 4192.30769231 , 4185.64102564 , 4193.33333333 , 4192.82051282 , 4202.05128205 , 4212.30769231 , 4951.79487179 , 4055.8974359 , 4200.51282051 , 3.32388338377 , 0.0 , 0.0 , 0.0 , 0.0 , 0.0 , 

2016-10-05T18:35:02.314000 , 49.0 , 0.0 , 0.0 , 4302.56410256 , 4288.71794872 , 4341.02564103 , 4340.51282051 , 4192.82051282 , 4187.69230769 , 4180.0 , 4194.87179487 , 4192.82051282 , 4203.58974359 , 4207.69230769 , 4954.87179487 , 4061.53846154 , 4195.8974359 , 3.33121150877 , 0.0 , 0.0 , 0.0 , 0.0 , 0.0 , 

2016-10-05T18:35:02.314000 , 50.0 , 0.0 , 0.0 , 4306.15384615 , 4297.94871795 , 4341.02564103 , 4326.66666667 , 4189.74358974 , 4189.23076923 , 4185.12820513 , 4195.38461538 , 4197.43589744 , 4199.48717949 , 4197.94871795 , 4957.94871795 , 4051.28205128 , 4196.41025641 , 3.33858650877 , 0.0 , 0.0 , 0.0 , 0.0 , 0.0 , 

2016-10-05T18:35:02.314000 , 51.0 , 0.0 , 0.0 , 4293.33333333 , 4287.69230769 , 4310.25641026 , 4304.1025641 , 4187.17948718 , 4180.51282051 , 4178.97435897 , 4193.84615385 , 4198.46153846 , 4197.43589744 , 4209.23076923 , 4954.35897436 , 4076.41025641 , 4202.05128205 , 3.34590682127 , 0.0 , 0.0 , 0.0 , 0.0 , 0.0 , 

2016-10-05T18:35:02.314000 , 52.0 , 0.0 , 0.0 , 4296.92307692 , 4293.84615385 , 4307.69230769 , 4323.07692308 , 4200.51282051 , 4194.35897436 , 4192.82051282 , 4192.30769231 , 4194.35897436 , 4193.84615385 , 4202.05128205 , 4955.8974359 , 4078.97435897 , 4201.53846154 , 3.35328572752 , 0.0 , 0.0 , 0.0 , 0.0 , 0.0 , 

2016-10-05T18:35:02.314000 , 53.0 , 0.0 , 0.0 , 4272.82051282 , 4277.43589744 , 4282.05128205 , 4293.84615385 , 4193.84615385 , 4194.35897436 , 4193.33333333 , 4196.41025641 , 4195.8974359 , 4197.43589744 , 4213.84615385 , 4948.20512821 , 4100.51282051 , 4203.58974359 , 3.36059822752 , 0.0 , 0.0 , 0.0 , 0.0 , 0.0 , 

2016-10-05T18:35:02.315000 , 54.0 , 0.0 , 0.0 , 4280.0 , 4289.74358974 , 4283.58974359 , 4299.48717949 , 4193.33333333 , 4195.8974359 , 4194.87179487 , 4194.87179487 , 4197.94871795 , 4200.51282051 , 4216.92307692 , 4950.25641026 , 4108.20512821 , 4205.12820513 , 3.36792635252 , 0.0 , 0.0 , 0.0 , 0.0 , 0.0 , 

2016-10-05T18:35:02.317000 , 55.0 , 0.0 , 0.0 , 4280.51282051 , 4292.82051282 , 4282.05128205 , 4305.64102564 , 4194.35897436 , 4189.74358974 , 4189.74358974 , 4193.84615385 , 4196.92307692 , 4199.48717949 , 4216.41025641 , 4955.38461538 , 4115.8974359 , 4202.56410256 , 3.37525447752 , 0.0 , 0.0 , 0.0 , 0.0 , 0.0 , 

2016-10-05T18:35:02.317000 , 56.0 , 0.0 , 0.0 , 4288.71794872 , 4299.48717949 , 4288.71794872 , 4305.64102564 , 4194.87179487 , 4191.79487179 , 4186.66666667 , 4197.43589744 , 4195.38461538 , 4194.87179487 , 4218.97435897 , 4954.35897436 , 4105.64102564 , 4202.05128205 , 3.38262166502 , 0.0 , 0.0 , 0.0 , 0.0 , 0.0 , 

