['LOG', 'COUNTER', 'INTERPOLATED', 'RAW_CQ', 'AF3', 'F7', 'F3', 'FC5', 'T7', 'P7', 'O1', 'O2', 'P8', 'T8', 'FC6', 'F4', 'F8', 'AF4', 'TIMESTAMP', 'ES_TIMESTAMP', 'FUNC_ID', 'FUNC_VALUE', 'MARKER', 'SYNC_SIGNAL']
2016-10-05T18:16:55.856493 , 120.0 , 0.0 , 0.0 , 4199.48717949 , 4291.79487179 , 4293.33333333 , 4302.56410256 , 4194.35897436 , 4235.8974359 , 4247.17948718 , 4194.35897436 , 4196.41025641 , 4200.51282051 , 4155.38461538 , 4950.76923077 , 4071.79487179 , 4088.71794872 , 3.63999116773 , 0.0 , 0.0 , 0.0 , 0.0 , 0.0 , 

2016-10-05T18:16:55.856922 , 121.0 , 0.0 , 0.0 , 4195.38461538 , 4276.41025641 , 4289.74358974 , 4288.71794872 , 4179.48717949 , 4222.56410256 , 4241.53846154 , 4192.82051282 , 4197.94871795 , 4200.0 , 4158.46153846 , 4947.69230769 , 4087.17948718 , 4100.0 , 3.64830733156 , 0.0 , 0.0 , 0.0 , 0.0 , 0.0 , 

2016-10-05T18:16:55.860634 , 122.0 , 0.0 , 0.0 , 4203.58974359 , 4274.87179487 , 4292.30769231 , 4286.66666667 , 4188.20512821 , 4238.97435897 , 4249.74358974 , 4193.84615385 , 4197.43589744 , 4198.46153846 , 4148.20512821 , 4944.61538462 , 4075.8974359 , 4097.94871795 , 3.65662349539 , 0.0 , 0.0 , 0.0 , 0.0 , 0.0 , 

2016-10-05T18:16:55.864904 , 123.0 , 0.0 , 0.0 , 4193.84615385 , 4259.48717949 , 4275.8974359 , 4269.74358974 , 4187.69230769 , 4237.43589744 , 4243.58974359 , 4195.8974359 , 4197.94871795 , 4196.92307692 , 4155.8974359 , 4952.30769231 , 4097.43589744 , 4116.41025641 , 3.66493965922 , 0.0 , 0.0 , 0.0 , 0.0 , 0.0 , 

2016-10-05T18:16:55.865294 , 124.0 , 0.0 , 0.0 , 4200.0 , 4269.74358974 , 4289.23076923 , 4286.66666667 , 4197.43589744 , 4243.58974359 , 4256.41025641 , 4192.82051282 , 4197.94871795 , 4193.33333333 , 4149.74358974 , 4946.66666667 , 4072.82051282 , 4107.69230769 , 3.67325582304 , 0.0 , 0.0 , 0.0 , 0.0 , 0.0 , 

2016-10-05T18:16:55.866222 , 125.0 , 0.0 , 0.0 , 4197.43589744 , 4269.23076923 , 4277.43589744 , 4284.61538462 , 4197.94871795 , 4241.02564103 , 4247.69230769 , 4191.28205128 , 4197.43589744 , 4195.38461538 , 4165.64102564 , 4948.71794872 , 4070.25641026 , 4119.48717949 , 3.68157198687 , 0.0 , 0.0 , 0.0 , 0.0 , 0.0 , 

2016-10-05T18:16:55.867469 , 126.0 , 0.0 , 0.0 , 4201.02564103 , 4287.17948718 , 4271.28205128 , 4292.82051282 , 4204.1025641 , 4257.43589744 , 4258.97435897 , 4192.82051282 , 4196.92307692 , 4195.8974359 , 4165.64102564 , 4951.28205128 , 4070.25641026 , 4114.35897436 , 3.6898881507 , 0.0 , 0.0 , 0.0 , 0.0 , 0.0 , 

2016-10-05T18:16:55.867826 , 127.0 , 0.0 , 0.0 , 4195.38461538 , 4289.23076923 , 4269.23076923 , 4293.33333333 , 4198.97435897 , 4254.35897436 , 4266.66666667 , 4196.41025641 , 4198.46153846 , 4198.46153846 , 4171.28205128 , 4960.51282051 , 4079.48717949 , 4113.33333333 , 3.69820431452 , 0.0 , 0.0 , 0.0 , 0.0 , 0.0 , 

2016-10-05T18:16:55.868157 , 128.0 , 0.0 , 0.0 , 4195.8974359 , 4289.74358974 , 4268.71794872 , 4297.94871795 , 4198.46153846 , 4244.61538462 , 4266.15384615 , 4198.46153846 , 4199.48717949 , 4199.48717949 , 4176.92307692 , 4960.51282051 , 4081.53846154 , 4111.79487179 , 3.70652047835 , 0.0 , 0.0 , 0.0 , 0.0 , 0.0 , 

2016-10-05T18:16:55.868482 , 0.0 , 0.0 , 0.0 , 4195.8974359 , 4287.69230769 , 4267.69230769 , 4299.48717949 , 4192.82051282 , 4242.05128205 , 4260.0 , 4195.38461538 , 4198.46153846 , 4200.0 , 4185.12820513 , 4956.92307692 , 4091.79487179 , 4112.82051282 , 3.71483664218 , 0.0 , 0.0 , 0.0 , 0.0 , 0.0 , 

2016-10-05T18:16:55.868820 , 1.0 , 0.0 , 0.0 , 4195.38461538 , 4282.05128205 , 4270.25641026 , 4293.84615385 , 4187.17948718 , 4238.97435897 , 4254.35897436 , 4193.84615385 , 4195.38461538 , 4202.05128205 , 4187.69230769 , 4955.38461538 , 4091.79487179 , 4107.69230769 , 3.723152806 , 0.0 , 0.0 , 0.0 , 0.0 , 0.0 , 

2016-10-05T18:16:55.869664 , 2.0 , 0.0 , 0.0 , 4205.64102564 , 4289.74358974 , 4280.51282051 , 4297.94871795 , 4193.84615385 , 4234.35897436 , 4256.41025641 , 4195.38461538 , 4195.38461538 , 4199.48717949 , 4174.35897436 , 4950.76923077 , 4070.76923077 , 4097.43589744 , 3.73146896983 , 0.0 , 0.0 , 0.0 , 0.0 , 0.0 , 

2016-10-05T18:16:55.870118 , 3.0 , 0.0 , 0.0 , 4204.61538462 , 4283.58974359 , 4276.92307692 , 4295.8974359 , 4191.79487179 , 4227.17948718 , 4253.84615385 , 4196.41025641 , 4198.46153846 , 4197.94871795 , 4174.87179487 , 4954.35897436 , 4075.8974359 , 4106.66666667 , 3.73978513366 , 0.0 , 0.0 , 0.0 , 0.0 , 0.0 , 

2016-10-05T18:16:55.870659 , 4.0 , 0.0 , 0.0 , 4205.12820513 , 4283.58974359 , 4294.87179487 , 4307.17948718 , 4192.30769231 , 4236.92307692 , 4258.46153846 , 4193.84615385 , 4194.87179487 , 4195.8974359 , 4157.43589744 , 4948.20512821 , 4069.23076923 , 4093.33333333 , 3.74810129748 , 0.0 , 0.0 , 0.0 , 0.0 , 0.0 , 

2016-10-05T18:16:55.873080 , 5.0 , 0.0 , 0.0 , 4196.92307692 , 4281.53846154 , 4291.28205128 , 4290.25641026 , 4184.61538462 , 4228.20512821 , 4244.61538462 , 4192.30769231 , 4192.30769231 , 4197.43589744 , 4154.87179487 , 4947.17948718 , 4073.33333333 , 4094.87179487 , 3.75641746131 , 0.0 , 0.0 , 0.0 , 0.0 , 0.0 , 

2016-10-05T18:16:55.873767 , 6.0 , 0.0 , 0.0 , 4207.69230769 , 4297.43589744 , 4299.48717949 , 4294.35897436 , 4198.46153846 , 4246.15384615 , 4263.07692308 , 4193.33333333 , 4194.87179487 , 4193.84615385 , 4141.02564103 , 4940.51282051 , 4060.51282051 , 4088.20512821 , 3.76473362514 , 0.0 , 0.0 , 0.0 , 0.0 , 0.0 , 

2016-10-05T18:16:55.874610 , 7.0 , 0.0 , 0.0 , 4193.84615385 , 4272.30769231 , 4280.51282051 , 4282.56410256 , 4190.25641026 , 4237.94871795 , 4254.35897436 , 4197.43589744 , 4197.94871795 , 4196.92307692 , 4156.92307692 , 4949.74358974 , 4090.76923077 , 4117.94871795 , 3.77304978896 , 0.0 , 0.0 , 0.0 , 0.0 , 0.0 , 

2016-10-05T18:16:55.875484 , 8.0 , 0.0 , 0.0 , 4199.48717949 , 4278.46153846 , 4282.56410256 , 4293.84615385 , 4191.79487179 , 4233.84615385 , 4254.87179487 , 4195.38461538 , 4194.87179487 , 4195.8974359 , 4153.33333333 , 4945.64102564 , 4084.1025641 , 4120.51282051 , 3.78136595279 , 0.0 , 0.0 , 0.0 , 0.0 , 0.0 , 

2016-10-05T18:16:55.876072 , 9.0 , 0.0 , 0.0 , 4194.35897436 , 4271.79487179 , 4260.0 , 4279.48717949 , 4185.12820513 , 4226.15384615 , 4248.20512821 , 4192.82051282 , 4195.8974359 , 4195.8974359 , 4172.82051282 , 4954.35897436 , 4096.41025641 , 4135.8974359 , 3.78968211662 , 0.0 , 0.0 , 0.0 , 0.0 , 0.0 , 

2016-10-05T18:16:55.876652 , 10.0 , 0.0 , 0.0 , 4198.97435897 , 4282.56410256 , 4268.71794872 , 4290.76923077 , 4201.02564103 , 4254.87179487 , 4271.79487179 , 4193.33333333 , 4197.43589744 , 4194.87179487 , 4161.53846154 , 4949.74358974 , 4071.28205128 , 4110.25641026 , 3.79799828044 , 0.0 , 0.0 , 0.0 , 0.0 , 0.0 , 

2016-10-05T18:16:55.877006 , 11.0 , 0.0 , 0.0 , 4182.05128205 , 4263.07692308 , 4263.58974359 , 4281.02564103 , 4190.76923077 , 4237.43589744 , 4253.84615385 , 4195.8974359 , 4195.38461538 , 4200.51282051 , 4174.35897436 , 4953.33333333 , 4063.07692308 , 4104.1025641 , 3.80631444427 , 0.0 , 0.0 , 0.0 , 0.0 , 0.0 , 

2016-10-05T18:16:55.877229 , 12.0 , 0.0 , 0.0 , 4201.53846154 , 4281.02564103 , 4280.0 , 4302.05128205 , 4198.46153846 , 4234.87179487 , 4249.23076923 , 4195.38461538 , 4194.87179487 , 4200.0 , 4173.84615385 , 4947.69230769 , 4053.84615385 , 4090.25641026 , 3.8146306081 , 0.0 , 0.0 , 0.0 , 0.0 , 0.0 , 

2016-10-05T18:16:55.877454 , 13.0 , 0.0 , 0.0 , 4203.07692308 , 4290.25641026 , 4266.15384615 , 4297.43589744 , 4197.94871795 , 4237.43589744 , 4248.71794872 , 4194.35897436 , 4196.92307692 , 4201.53846154 , 4187.69230769 , 4953.84615385 , 4085.12820513 , 4106.15384615 , 3.82294677192 , 0.0 , 0.0 , 0.0 , 0.0 , 0.0 , 

2016-10-05T18:16:55.877691 , 14.0 , 0.0 , 0.0 , 4206.15384615 , 4304.1025641 , 4281.53846154 , 4311.28205128 , 4198.46153846 , 4245.64102564 , 4269.74358974 , 4194.35897436 , 4195.38461538 , 4202.56410256 , 4170.25641026 , 4948.20512821 , 4051.28205128 , 4086.66666667 , 3.83126293575 , 0.0 , 0.0 , 0.0 , 0.0 , 0.0 , 

2016-10-05T18:16:55.877909 , 15.0 , 0.0 , 0.0 , 4207.69230769 , 4288.71794872 , 4299.48717949 , 4312.82051282 , 4187.69230769 , 4227.17948718 , 4253.33333333 , 4194.35897436 , 4194.35897436 , 4198.97435897 , 4165.12820513 , 4948.20512821 , 4041.53846154 , 4075.38461538 , 3.83957909958 , 0.0 , 0.0 , 0.0 , 0.0 , 0.0 , 

2016-10-05T18:16:55.878121 , 16.0 , 0.0 , 0.0 , 4209.23076923 , 4286.66666667 , 4301.02564103 , 4307.17948718 , 4195.38461538 , 4226.15384615 , 4241.02564103 , 4194.87179487 , 4195.38461538 , 4194.87179487 , 4159.48717949 , 4946.15384615 , 4072.82051282 , 4077.43589744 , 3.8478952634 , 0.0 , 0.0 , 0.0 , 0.0 , 0.0 , 

2016-10-05T18:16:55.878469 , 17.0 , 0.0 , 0.0 , 4192.30769231 , 4277.43589744 , 4280.0 , 4280.0 , 4193.33333333 , 4225.12820513 , 4243.07692308 , 4196.41025641 , 4196.41025641 , 4197.43589744 , 4155.8974359 , 4948.20512821 , 4104.1025641 , 4099.48717949 , 3.85621142723 , 0.0 , 0.0 , 0.0 , 0.0 , 0.0 , 

2016-10-05T18:16:55.878742 , 18.0 , 0.0 , 0.0 , 4188.71794872 , 4267.17948718 , 4279.48717949 , 4272.82051282 , 4186.66666667 , 4223.58974359 , 4252.30769231 , 4197.94871795 , 4196.41025641 , 4197.43589744 , 4149.23076923 , 4945.64102564 , 4090.25641026 , 4104.61538462 , 3.86452759106 , 0.0 , 0.0 , 0.0 , 0.0 , 0.0 , 

2016-10-05T18:16:55.879015 , 19.0 , 0.0 , 0.0 , 4191.79487179 , 4256.92307692 , 4288.20512821 , 4281.02564103 , 4188.20512821 , 4225.12820513 , 4248.71794872 , 4194.87179487 , 4194.87179487 , 4192.82051282 , 4150.25641026 , 4940.0 , 4068.71794872 , 4095.38461538 , 3.87284375489 , 0.0 , 0.0 , 0.0 , 0.0 , 0.0 , 

2016-10-05T18:16:55.879236 , 20.0 , 0.0 , 0.0 , 4185.12820513 , 4252.30769231 , 4278.46153846 , 4276.41025641 , 4193.33333333 , 4234.35897436 , 4249.74358974 , 4194.35897436 , 4193.84615385 , 4195.8974359 , 4152.30769231 , 4940.51282051 , 4065.12820513 , 4096.92307692 , 3.88115991871 , 0.0 , 0.0 , 0.0 , 0.0 , 0.0 , 

2016-10-05T18:16:55.879452 , 21.0 , 0.0 , 0.0 , 4195.38461538 , 4270.76923077 , 4277.94871795 , 4277.94871795 , 4201.53846154 , 4254.87179487 , 4269.23076923 , 4195.38461538 , 4193.84615385 , 4196.41025641 , 4137.43589744 , 4938.97435897 , 4066.15384615 , 4096.41025641 , 3.88947608254 , 0.0 , 0.0 , 0.0 , 0.0 , 0.0 , 

2016-10-05T18:16:55.879675 , 22.0 , 0.0 , 0.0 , 4199.48717949 , 4284.1025641 , 4266.66666667 , 4284.1025641 , 4200.0 , 4252.82051282 , 4262.05128205 , 4194.35897436 , 4194.87179487 , 4195.38461538 , 4150.25641026 , 4946.66666667 , 4083.58974359 , 4110.25641026 , 3.89779224637 , 0.0 , 0.0 , 0.0 , 0.0 , 0.0 , 

2016-10-05T18:16:55.879889 , 23.0 , 0.0 , 0.0 , 4205.12820513 , 4293.84615385 , 4271.28205128 , 4310.76923077 , 4209.23076923 , 4262.56410256 , 4263.58974359 , 4192.30769231 , 4195.8974359 , 4193.84615385 , 4163.58974359 , 4946.15384615 , 4074.87179487 , 4107.17948718 , 3.90610841019 , 0.0 , 0.0 , 0.0 , 0.0 , 0.0 , 

2016-10-05T18:16:55.880104 , 24.0 , 0.0 , 0.0 , 4193.84615385 , 4278.97435897 , 4257.43589744 , 4295.38461538 , 4195.38461538 , 4253.33333333 , 4265.12820513 , 4194.35897436 , 4197.43589744 , 4200.0 , 4190.25641026 , 4956.41025641 , 4080.51282051 , 4121.02564103 , 3.91442457402 , 0.0 , 0.0 , 0.0 , 0.0 , 0.0 , 

2016-10-05T18:16:55.880327 , 25.0 , 0.0 , 0.0 , 4206.66666667 , 4305.12820513 , 4282.05128205 , 4308.71794872 , 4203.07692308 , 4264.61538462 , 4291.79487179 , 4195.38461538 , 4196.41025641 , 4196.41025641 , 4172.30769231 , 4948.71794872 , 4057.94871795 , 4094.87179487 , 3.92274073785 , 0.0 , 0.0 , 0.0 , 0.0 , 0.0 , 

2016-10-05T18:16:55.880525 , 26.0 , 0.0 , 0.0 , 4197.94871795 , 4305.12820513 , 4280.0 , 4305.12820513 , 4202.05128205 , 4255.38461538 , 4276.41025641 , 4195.38461538 , 4198.46153846 , 4195.8974359 , 4176.41025641 , 4948.71794872 , 4080.0 , 4094.35897436 , 3.93105690167 , 0.0 , 0.0 , 0.0 , 0.0 , 0.0 , 

2016-10-05T18:16:55.880731 , 27.0 , 0.0 , 0.0 , 4195.8974359 , 4304.1025641 , 4279.48717949 , 4302.56410256 , 4209.23076923 , 4262.56410256 , 4271.28205128 , 4194.35897436 , 4200.51282051 , 4196.92307692 , 4172.30769231 , 4944.61538462 , 4075.8974359 , 4080.0 , 3.9393730655 , 0.0 , 0.0 , 0.0 , 0.0 , 0.0 , 

2016-10-05T18:16:55.880927 , 28.0 , 0.0 , 0.0 , 4185.64102564 , 4277.43589744 , 4260.0 , 4274.35897436 , 4193.84615385 , 4242.56410256 , 4256.41025641 , 4196.41025641 , 4199.48717949 , 4200.0 , 4182.56410256 , 4950.25641026 , 4087.17948718 , 4092.30769231 , 3.94768922933 , 0.0 , 0.0 , 0.0 , 0.0 , 0.0 , 

2016-10-05T18:16:55.881129 , 29.0 , 0.0 , 0.0 , 4202.56410256 , 4286.66666667 , 4284.61538462 , 4293.84615385 , 4192.82051282 , 4238.97435897 , 4263.07692308 , 4196.92307692 , 4196.92307692 , 4197.94871795 , 4156.92307692 , 4935.8974359 , 4074.35897436 , 4084.1025641 , 3.95600539315 , 0.0 , 0.0 , 0.0 , 0.0 , 0.0 , 

2016-10-05T18:16:55.881450 , 30.0 , 0.0 , 0.0 , 4190.76923077 , 4266.15384615 , 4279.48717949 , 4275.8974359 , 4177.43589744 , 4217.94871795 , 4237.43589744 , 4196.41025641 , 4196.92307692 , 4199.48717949 , 4157.94871795 , 4942.56410256 , 4091.79487179 , 4097.43589744 , 3.96432155698 , 0.0 , 0.0 , 0.0 , 0.0 , 0.0 , 

2016-10-05T18:16:55.881765 , 31.0 , 0.0 , 0.0 , 4196.92307692 , 4275.8974359 , 4283.58974359 , 4276.92307692 , 4190.25641026 , 4232.30769231 , 4245.12820513 , 4195.38461538 , 4196.41025641 , 4196.41025641 , 4147.17948718 , 4947.69230769 , 4073.33333333 , 4089.74358974 , 3.97263772081 , 0.0 , 0.0 , 0.0 , 0.0 , 0.0 , 

2016-10-05T18:16:55.882070 , 32.0 , 0.0 , 0.0 , 4198.46153846 , 4275.8974359 , 4282.05128205 , 4287.17948718 , 4186.66666667 , 4233.33333333 , 4244.1025641 , 4195.38461538 , 4197.43589744 , 4196.41025641 , 4164.61538462 , 4955.38461538 , 4081.53846154 , 4110.76923077 , 3.98095388463 , 0.0 , 0.0 , 0.0 , 0.0 , 0.0 , 

2016-10-05T18:16:55.882389 , 33.0 , 0.0 , 0.0 , 4203.07692308 , 4280.51282051 , 4299.48717949 , 4306.15384615 , 4188.71794872 , 4235.8974359 , 4252.30769231 , 4193.33333333 , 4198.46153846 , 4196.41025641 , 4161.53846154 , 4946.66666667 , 4058.97435897 , 4104.61538462 , 3.98927004846 , 0.0 , 0.0 , 0.0 , 0.0 , 0.0 , 

2016-10-05T18:16:55.882701 , 34.0 , 0.0 , 0.0 , 4185.12820513 , 4272.82051282 , 4284.61538462 , 4286.15384615 , 4195.8974359 , 4238.97435897 , 4260.0 , 4194.35897436 , 4196.41025641 , 4195.8974359 , 4154.87179487 , 4944.1025641 , 4054.35897436 , 4098.46153846 , 3.99758621229 , 0.0 , 0.0 , 0.0 , 0.0 , 0.0 , 

2016-10-05T18:16:55.883000 , 35.0 , 0.0 , 0.0 , 4182.05128205 , 4277.43589744 , 4254.35897436 , 4273.33333333 , 4203.58974359 , 4254.35897436 , 4278.97435897 , 4197.94871795 , 4194.35897436 , 4194.35897436 , 4161.53846154 , 4947.69230769 , 4082.05128205 , 4109.23076923 , 4.00590237611 , 0.0 , 0.0 , 0.0 , 0.0 , 0.0 , 

2016-10-05T18:16:55.883319 , 36.0 , 0.0 , 0.0 , 4190.25641026 , 4269.74358974 , 4245.12820513 , 4274.35897436 , 4189.74358974 , 4246.15384615 , 4276.92307692 , 4196.92307692 , 4196.92307692 , 4194.35897436 , 4185.64102564 , 4954.87179487 , 4101.02564103 , 4128.71794872 , 4.01421853994 , 0.0 , 0.0 , 0.0 , 0.0 , 0.0 , 

2016-10-05T18:16:55.883580 , 37.0 , 0.0 , 0.0 , 4201.53846154 , 4274.87179487 , 4271.79487179 , 4293.33333333 , 4192.30769231 , 4237.94871795 , 4266.15384615 , 4196.41025641 , 4198.97435897 , 4196.41025641 , 4184.61538462 , 4952.82051282 , 4071.28205128 , 4113.33333333 , 4.02253470377 , 0.0 , 0.0 , 0.0 , 0.0 , 0.0 , 

2016-10-05T18:16:55.883852 , 38.0 , 0.0 , 0.0 , 4208.71794872 , 4296.41025641 , 4287.17948718 , 4311.28205128 , 4208.20512821 , 4244.1025641 , 4259.48717949 , 4196.41025641 , 4197.43589744 , 4198.46153846 , 4173.33333333 , 4951.79487179 , 4066.15384615 , 4097.43589744 , 4.03085086759 , 0.0 , 0.0 , 0.0 , 0.0 , 0.0 , 

2016-10-05T18:16:55.884079 , 39.0 , 0.0 , 0.0 , 4206.15384615 , 4293.84615385 , 4273.84615385 , 4298.97435897 , 4199.48717949 , 4237.43589744 , 4252.82051282 , 4196.41025641 , 4194.87179487 , 4200.0 , 4175.8974359 , 4955.38461538 , 4084.1025641 , 4102.05128205 , 4.03916703142 , 0.0 , 0.0 , 0.0 , 0.0 , 0.0 , 

2016-10-05T18:16:55.884294 , 40.0 , 0.0 , 0.0 , 4202.05128205 , 4283.58974359 , 4282.56410256 , 4292.82051282 , 4188.20512821 , 4233.84615385 , 4257.94871795 , 4195.38461538 , 4194.87179487 , 4195.8974359 , 4163.58974359 , 4947.17948718 , 4057.94871795 , 4085.64102564 , 4.04748319525 , 0.0 , 0.0 , 0.0 , 0.0 , 0.0 , 

2016-10-05T18:16:55.884504 , 41.0 , 0.0 , 0.0 , 4191.28205128 , 4277.94871795 , 4276.92307692 , 4290.76923077 , 4181.53846154 , 4222.56410256 , 4249.23076923 , 4196.41025641 , 4196.41025641 , 4198.46153846 , 4167.69230769 , 4951.79487179 , 4068.71794872 , 4092.82051282 , 4.05579935907 , 0.0 , 0.0 , 0.0 , 0.0 , 0.0 , 

2016-10-05T18:16:55.884756 , 42.0 , 0.0 , 0.0 , 4211.28205128 , 4298.97435897 , 4293.84615385 , 4308.20512821 , 4199.48717949 , 4235.8974359 , 4257.94871795 , 4196.92307692 , 4195.38461538 , 4196.92307692 , 4144.61538462 , 4946.66666667 , 4076.92307692 , 4089.23076923 , 4.0641155229 , 0.0 , 0.0 , 0.0 , 0.0 , 0.0 , 

2016-10-05T18:16:55.884998 , 43.0 , 0.0 , 0.0 , 4204.61538462 , 4273.84615385 , 4294.87179487 , 4284.61538462 , 4186.15384615 , 4225.12820513 , 4243.07692308 , 4197.94871795 , 4194.87179487 , 4195.38461538 , 4137.43589744 , 4945.64102564 , 4077.43589744 , 4095.8974359 , 4.07243168673 , 0.0 , 0.0 , 0.0 , 0.0 , 0.0 , 

2016-10-05T18:16:55.885452 , 44.0 , 0.0 , 0.0 , 4196.41025641 , 4257.43589744 , 4297.43589744 , 4273.33333333 , 4181.53846154 , 4228.71794872 , 4241.53846154 , 4195.8974359 , 4196.41025641 , 4193.33333333 , 4132.30769231 , 4942.05128205 , 4062.05128205 , 4083.07692308 , 4.08074785055 , 0.0 , 0.0 , 0.0 , 0.0 , 0.0 , 

2016-10-05T18:16:55.886204 , 45.0 , 0.0 , 0.0 , 4182.56410256 , 4244.61538462 , 4270.76923077 , 4262.56410256 , 4183.07692308 , 4225.64102564 , 4233.33333333 , 4195.38461538 , 4198.46153846 , 4198.46153846 , 4157.43589744 , 4952.30769231 , 4091.79487179 , 4109.74358974 , 4.08906401438 , 0.0 , 0.0 , 0.0 , 0.0 , 0.0 , 

2016-10-05T18:16:55.886981 , 46.0 , 0.0 , 0.0 , 4197.43589744 , 4271.79487179 , 4280.51282051 , 4291.28205128 , 4202.56410256 , 4247.69230769 , 4259.48717949 , 4195.38461538 , 4196.92307692 , 4195.38461538 , 4148.71794872 , 4944.61538462 , 4066.66666667 , 4109.74358974 , 4.09738017821 , 0.0 , 0.0 , 0.0 , 0.0 , 0.0 , 

2016-10-05T18:16:55.887445 , 47.0 , 0.0 , 0.0 , 4187.17948718 , 4258.46153846 , 4254.35897436 , 4272.82051282 , 4187.17948718 , 4231.79487179 , 4248.71794872 , 4195.8974359 , 4193.33333333 , 4195.38461538 , 4169.74358974 , 4953.33333333 , 4077.43589744 , 4129.74358974 , 4.10569634204 , 0.0 , 0.0 , 0.0 , 0.0 , 0.0 , 

2016-10-05T18:16:55.888188 , 48.0 , 0.0 , 0.0 , 4202.05128205 , 4274.35897436 , 4264.61538462 , 4287.17948718 , 4199.48717949 , 4242.05128205 , 4257.43589744 , 4194.87179487 , 4192.30769231 , 4193.84615385 , 4166.15384615 , 4949.23076923 , 4068.71794872 , 4110.25641026 , 4.11401250586 , 0.0 , 0.0 , 0.0 , 0.0 , 0.0 , 

2016-10-05T18:16:55.888607 , 49.0 , 0.0 , 0.0 , 4200.0 , 4280.0 , 4274.35897436 , 4296.92307692 , 4202.56410256 , 4248.20512821 , 4259.48717949 , 4194.35897436 , 4196.92307692 , 4197.43589744 , 4181.02564103 , 4953.84615385 , 4069.74358974 , 4108.71794872 , 4.12232866969 , 0.0 , 0.0 , 0.0 , 0.0 , 0.0 , 

2016-10-05T18:16:55.891100 , 50.0 , 0.0 , 0.0 , 4196.92307692 , 4291.28205128 , 4278.97435897 , 4303.07692308 , 4206.66666667 , 4255.8974359 , 4274.87179487 , 4192.82051282 , 4199.48717949 , 4198.97435897 , 4181.53846154 , 4955.8974359 , 4063.58974359 , 4100.0 , 4.13064483352 , 0.0 , 0.0 , 0.0 , 0.0 , 0.0 , 

2016-10-05T18:16:55.891534 , 51.0 , 0.0 , 0.0 , 4190.76923077 , 4283.07692308 , 4264.61538462 , 4288.20512821 , 4197.94871795 , 4237.43589744 , 4260.0 , 4194.87179487 , 4197.43589744 , 4196.92307692 , 4183.07692308 , 4962.05128205 , 4085.64102564 , 4103.58974359 , 4.13896099734 , 0.0 , 0.0 , 0.0 , 0.0 , 0.0 , 

2016-10-05T18:16:55.892715 , 52.0 , 0.0 , 0.0 , 4211.28205128 , 4304.61538462 , 4293.33333333 , 4320.51282051 , 4203.58974359 , 4244.1025641 , 4258.46153846 , 4194.87179487 , 4197.43589744 , 4194.87179487 , 4161.53846154 , 4952.82051282 , 4056.41025641 , 4080.51282051 , 4.14727716117 , 0.0 , 0.0 , 0.0 , 0.0 , 0.0 , 

2016-10-05T18:16:55.893114 , 53.0 , 0.0 , 0.0 , 4214.87179487 , 4297.43589744 , 4308.20512821 , 4320.51282051 , 4194.87179487 , 4237.43589744 , 4253.84615385 , 4193.84615385 , 4199.48717949 , 4200.0 , 4162.05128205 , 4952.82051282 , 4055.38461538 , 4082.05128205 , 4.155593325 , 0.0 , 0.0 , 0.0 , 0.0 , 0.0 , 

2016-10-05T18:16:55.893567 , 54.0 , 0.0 , 0.0 , 4198.97435897 , 4278.97435897 , 4292.30769231 , 4284.61538462 , 4190.25641026 , 4225.64102564 , 4255.8974359 , 4194.87179487 , 4198.46153846 , 4200.0 , 4161.02564103 , 4949.74358974 , 4091.28205128 , 4097.43589744 , 4.16390948882 , 0.0 , 0.0 , 0.0 , 0.0 , 0.0 , 

2016-10-05T18:16:55.893998 , 55.0 , 0.0 , 0.0 , 4187.17948718 , 4272.30769231 , 4276.92307692 , 4270.25641026 , 4191.79487179 , 4228.71794872 , 4255.38461538 , 4194.87179487 , 4197.43589744 , 4192.82051282 , 4153.84615385 , 4947.17948718 , 4112.30769231 , 4112.30769231 , 4.17222565265 , 0.0 , 0.0 , 0.0 , 0.0 , 0.0 , 

2016-10-05T18:16:55.894418 , 56.0 , 0.0 , 0.0 , 4194.87179487 , 4280.51282051 , 4282.05128205 , 4284.61538462 , 4195.8974359 , 4242.56410256 , 4247.69230769 , 4196.41025641 , 4197.43589744 , 4193.84615385 , 4154.35897436 , 4953.33333333 , 4086.66666667 , 4114.35897436 , 4.18054181648 , 0.0 , 0.0 , 0.0 , 0.0 , 0.0 , 

2016-10-05T18:16:55.894771 , 57.0 , 0.0 , 0.0 , 4200.0 , 4283.07692308 , 4293.84615385 , 4288.20512821 , 4195.8974359 , 4243.07692308 , 4244.61538462 , 4196.41025641 , 4197.94871795 , 4196.41025641 , 4157.94871795 , 4951.28205128 , 4064.1025641 , 4105.64102564 , 4.1888579803 , 0.0 , 0.0 , 0.0 , 0.0 , 0.0 , 

2016-10-05T18:16:55.895416 , 58.0 , 0.0 , 0.0 , 4189.23076923 , 4267.69230769 , 4276.92307692 , 4278.97435897 , 4188.20512821 , 4232.30769231 , 4247.17948718 , 4195.8974359 , 4197.94871795 , 4197.94871795 , 4168.20512821 , 4949.23076923 , 4085.12820513 , 4115.38461538 , 4.19717414413 , 0.0 , 0.0 , 0.0 , 0.0 , 0.0 , 

2016-10-05T18:16:55.896477 , 59.0 , 0.0 , 0.0 , 4198.97435897 , 4273.84615385 , 4274.35897436 , 4293.84615385 , 4194.35897436 , 4244.1025641 , 4261.53846154 , 4194.35897436 , 4195.8974359 , 4196.41025641 , 4162.05128205 , 4947.69230769 , 4085.12820513 , 4116.92307692 , 4.20549030796 , 0.0 , 0.0 , 0.0 , 0.0 , 0.0 , 

2016-10-05T18:16:55.897233 , 60.0 , 0.0 , 0.0 , 4196.41025641 , 4277.94871795 , 4266.66666667 , 4289.74358974 , 4190.76923077 , 4243.58974359 , 4258.97435897 , 4195.38461538 , 4195.8974359 , 4197.94871795 , 4169.74358974 , 4955.38461538 , 4081.02564103 , 4122.05128205 , 4.21380647178 , 0.0 , 0.0 , 0.0 , 0.0 , 0.0 , 

2016-10-05T18:16:55.898109 , 61.0 , 0.0 , 0.0 , 4205.12820513 , 4301.02564103 , 4282.56410256 , 4306.66666667 , 4211.28205128 , 4267.17948718 , 4282.56410256 , 4196.41025641 , 4196.41025641 , 4194.35897436 , 4161.02564103 , 4947.17948718 , 4060.0 , 4098.46153846 , 4.22212263561 , 0.0 , 0.0 , 0.0 , 0.0 , 0.0 , 

2016-10-05T18:16:55.898590 , 62.0 , 0.0 , 0.0 , 4201.02564103 , 4284.61538462 , 4277.94871795 , 4304.1025641 , 4208.71794872 , 4259.48717949 , 4272.82051282 , 4195.8974359 , 4197.94871795 , 4195.38461538 , 4183.07692308 , 4952.30769231 , 4083.07692308 , 4107.69230769 , 4.23043879944 , 0.0 , 0.0 , 0.0 , 0.0 , 0.0 , 

2016-10-05T18:16:55.898924 , 63.0 , 0.0 , 0.0 , 4205.64102564 , 4286.66666667 , 4289.23076923 , 4313.84615385 , 4202.05128205 , 4251.79487179 , 4267.69230769 , 4194.35897436 , 4195.8974359 , 4197.43589744 , 4178.97435897 , 4948.71794872 , 4073.84615385 , 4097.94871795 , 4.23875496326 , 0.0 , 0.0 , 0.0 , 0.0 , 0.0 , 

2016-10-05T18:16:55.899519 , 64.0 , 0.0 , 0.0 , 4194.35897436 , 4282.05128205 , 4270.25641026 , 4293.84615385 , 4185.12820513 , 4227.17948718 , 4243.58974359 , 4195.8974359 , 4196.92307692 , 4202.56410256 , 4181.53846154 , 4956.41025641 , 4085.12820513 , 4103.58974359 , 4.24707112709 , 0.0 , 0.0 , 0.0 , 0.0 , 0.0 , 

2016-10-05T18:16:55.899845 , 65.0 , 0.0 , 0.0 , 4207.69230769 , 4300.0 , 4282.05128205 , 4302.56410256 , 4195.38461538 , 4235.8974359 , 4249.23076923 , 4195.8974359 , 4197.94871795 , 4197.43589744 , 4160.0 , 4949.74358974 , 4065.64102564 , 4078.46153846 , 4.25538729092 , 0.0 , 0.0 , 0.0 , 0.0 , 0.0 , 

2016-10-05T18:16:55.900137 , 66.0 , 0.0 , 0.0 , 4191.28205128 , 4278.46153846 , 4275.38461538 , 4282.56410256 , 4181.53846154 , 4223.07692308 , 4235.38461538 , 4194.35897436 , 4197.94871795 , 4196.41025641 , 4168.20512821 , 4953.84615385 , 4080.0 , 4087.69230769 , 4.26370345474 , 0.0 , 0.0 , 0.0 , 0.0 , 0.0 , 

2016-10-05T18:16:55.900457 , 67.0 , 0.0 , 0.0 , 4189.74358974 , 4276.41025641 , 4289.23076923 , 4288.20512821 , 4185.12820513 , 4227.69230769 , 4248.71794872 , 4195.38461538 , 4195.38461538 , 4197.43589744 , 4156.41025641 , 4945.64102564 , 4081.02564103 , 4091.28205128 , 4.27201961857 , 0.0 , 0.0 , 0.0 , 0.0 , 0.0 , 

2016-10-05T18:16:55.900753 , 68.0 , 0.0 , 0.0 , 4187.69230769 , 4263.07692308 , 4281.53846154 , 4278.46153846 , 4179.48717949 , 4214.87179487 , 4238.46153846 , 4198.97435897 , 4197.94871795 , 4199.48717949 , 4160.51282051 , 4949.23076923 , 4106.66666667 , 4114.35897436 , 4.2793357824 , 0.0 , 0.0 , 0.0 , 0.0 , 0.0 , 

2016-10-05T18:16:55.901062 , 69.0 , 0.0 , 0.0 , 4206.15384615 , 4280.0 , 4293.33333333 , 4287.69230769 , 4193.33333333 , 4229.23076923 , 4247.69230769 , 4196.92307692 , 4198.97435897 , 4194.87179487 , 4140.0 , 4943.07692308 , 4082.56410256 , 4092.82051282 , 4.28665194622 , 0.0 , 0.0 , 0.0 , 0.0 , 0.0 , 

2016-10-05T18:16:55.902032 , 70.0 , 0.0 , 0.0 , 4196.41025641 , 4275.8974359 , 4285.12820513 , 4277.94871795 , 4194.87179487 , 4237.43589744 , 4250.76923077 , 4194.87179487 , 4193.84615385 , 4193.33333333 , 4138.97435897 , 4944.1025641 , 4071.79487179 , 4091.28205128 , 4.29396811005 , 0.0 , 0.0 , 0.0 , 0.0 , 0.0 , 

2016-10-05T18:16:55.903488 , 71.0 , 0.0 , 0.0 , 4190.76923077 , 4276.41025641 , 4278.46153846 , 4288.20512821 , 4194.35897436 , 4246.66666667 , 4260.51282051 , 4195.38461538 , 4192.30769231 , 4194.35897436 , 4147.17948718 , 4944.61538462 , 4069.23076923 , 4107.69230769 , 4.30128427388 , 0.0 , 0.0 , 0.0 , 0.0 , 0.0 , 

2016-10-05T18:16:55.906539 , 72.0 , 0.0 , 0.0 , 4194.87179487 , 4273.33333333 , 4269.23076923 , 4294.87179487 , 4190.25641026 , 4246.66666667 , 4263.58974359 , 4196.41025641 , 4195.38461538 , 4196.92307692 , 4165.64102564 , 4951.79487179 , 4078.97435897 , 4122.56410256 , 4.30860043771 , 0.0 , 0.0 , 0.0 , 0.0 , 0.0 , 

2016-10-05T18:16:55.919344 , 73.0 , 0.0 , 0.0 , 4196.41025641 , 4276.41025641 , 4267.69230769 , 4294.35897436 , 4191.79487179 , 4246.15384615 , 4268.71794872 , 4196.92307692 , 4195.8974359 , 4197.43589744 , 4170.25641026 , 4955.8974359 , 4070.25641026 , 4109.23076923 , 4.31591660153 , 0.0 , 0.0 , 0.0 , 0.0 , 0.0 , 

2016-10-05T18:16:55.920141 , 74.0 , 0.0 , 0.0 , 4190.25641026 , 4276.41025641 , 4271.79487179 , 4292.82051282 , 4187.17948718 , 4237.94871795 , 4260.0 , 4194.87179487 , 4194.87179487 , 4198.46153846 , 4174.35897436 , 4954.35897436 , 4073.33333333 , 4102.56410256 , 4.32323276536 , 0.0 , 0.0 , 0.0 , 0.0 , 0.0 , 

2016-10-05T18:16:55.925750 , 75.0 , 0.0 , 0.0 , 4197.43589744 , 4288.71794872 , 4280.0 , 4305.64102564 , 4194.87179487 , 4241.53846154 , 4252.30769231 , 4193.33333333 , 4196.41025641 , 4203.58974359 , 4184.1025641 , 4953.84615385 , 4079.48717949 , 4104.1025641 , 4.33054892919 , 0.0 , 0.0 , 0.0 , 0.0 , 0.0 , 

2016-10-05T18:16:55.928692 , 76.0 , 0.0 , 0.0 , 4208.71794872 , 4309.74358974 , 4287.17948718 , 4310.25641026 , 4208.20512821 , 4258.46153846 , 4261.53846154 , 4191.28205128 , 4196.41025641 , 4198.97435897 , 4183.58974359 , 4955.8974359 , 4072.82051282 , 4100.51282051 , 4.33786509301 , 0.0 , 0.0 , 0.0 , 0.0 , 0.0 , 

2016-10-05T18:16:55.929097 , 77.0 , 0.0 , 0.0 , 4191.79487179 , 4291.79487179 , 4266.15384615 , 4280.51282051 , 4188.71794872 , 4238.97435897 , 4258.46153846 , 4195.8974359 , 4198.97435897 , 4194.87179487 , 4183.07692308 , 4961.02564103 , 4083.58974359 , 4110.76923077 , 4.34518125684 , 0.0 , 0.0 , 0.0 , 0.0 , 0.0 , 

2016-10-05T18:16:55.930192 , 78.0 , 0.0 , 0.0 , 4195.38461538 , 4285.12820513 , 4280.0 , 4283.58974359 , 4189.74358974 , 4227.17948718 , 4255.8974359 , 4201.02564103 , 4198.46153846 , 4194.35897436 , 4155.38461538 , 4950.25641026 , 4060.0 , 4083.58974359 , 4.35249742067 , 0.0 , 0.0 , 0.0 , 0.0 , 0.0 , 

2016-10-05T18:16:55.930933 , 79.0 , 0.0 , 0.0 , 4195.8974359 , 4281.02564103 , 4289.74358974 , 4290.25641026 , 4193.33333333 , 4219.48717949 , 4234.35897436 , 4200.51282051 , 4194.35897436 , 4202.05128205 , 4156.92307692 , 4955.38461538 , 4061.53846154 , 4075.8974359 , 4.35981358449 , 0.0 , 0.0 , 0.0 , 0.0 , 0.0 , 

2016-10-05T18:16:55.931519 , 80.0 , 0.0 , 0.0 , 4205.12820513 , 4290.25641026 , 4303.07692308 , 4307.69230769 , 4198.97435897 , 4237.94871795 , 4248.71794872 , 4193.84615385 , 4193.33333333 , 4200.0 , 4139.48717949 , 4945.64102564 , 4072.30769231 , 4077.43589744 , 4.36712974832 , 0.0 , 0.0 , 0.0 , 0.0 , 0.0 , 

2016-10-05T18:16:55.932132 , 81.0 , 0.0 , 0.0 , 4194.35897436 , 4263.07692308 , 4282.56410256 , 4284.1025641 , 4184.61538462 , 4232.30769231 , 4250.25641026 , 4192.82051282 , 4194.87179487 , 4196.92307692 , 4142.05128205 , 4941.53846154 , 4094.87179487 , 4109.74358974 , 4.37444591215 , 0.0 , 0.0 , 0.0 , 0.0 , 0.0 , 

2016-10-05T18:16:55.932475 , 82.0 , 0.0 , 0.0 , 4198.97435897 , 4270.76923077 , 4292.30769231 , 4283.58974359 , 4194.35897436 , 4237.43589744 , 4255.8974359 , 4194.87179487 , 4194.35897436 , 4194.35897436 , 4142.05128205 , 4943.58974359 , 4058.46153846 , 4102.56410256 , 4.38176207597 , 0.0 , 0.0 , 0.0 , 0.0 , 0.0 , 

2016-10-05T18:16:55.932892 , 83.0 , 0.0 , 0.0 , 4187.69230769 , 4263.07692308 , 4275.8974359 , 4270.25641026 , 4184.1025641 , 4225.64102564 , 4240.0 , 4195.38461538 , 4195.38461538 , 4201.02564103 , 4167.69230769 , 4961.53846154 , 4082.05128205 , 4124.61538462 , 4.3890782398 , 0.0 , 0.0 , 0.0 , 0.0 , 0.0 , 

2016-10-05T18:16:55.933257 , 84.0 , 0.0 , 0.0 , 4196.92307692 , 4272.30769231 , 4273.33333333 , 4284.61538462 , 4193.84615385 , 4247.17948718 , 4263.07692308 , 4192.30769231 , 4196.41025641 , 4200.51282051 , 4152.30769231 , 4949.74358974 , 4090.76923077 , 4129.74358974 , 4.39639440363 , 0.0 , 0.0 , 0.0 , 0.0 , 0.0 , 

2016-10-05T18:16:55.933655 , 85.0 , 0.0 , 0.0 , 4188.20512821 , 4264.61538462 , 4252.82051282 , 4274.87179487 , 4194.35897436 , 4244.61538462 , 4260.51282051 , 4192.30769231 , 4196.92307692 , 4197.43589744 , 4168.20512821 , 4952.30769231 , 4095.38461538 , 4134.35897436 , 4.40371056745 , 0.0 , 0.0 , 0.0 , 0.0 , 0.0 , 

2016-10-05T18:16:55.934033 , 86.0 , 0.0 , 0.0 , 4202.56410256 , 4289.23076923 , 4271.28205128 , 4298.46153846 , 4204.61538462 , 4254.87179487 , 4268.71794872 , 4195.8974359 , 4196.92307692 , 4193.84615385 , 4174.35897436 , 4950.25641026 , 4073.84615385 , 4103.07692308 , 4.41102673128 , 0.0 , 0.0 , 0.0 , 0.0 , 0.0 , 

2016-10-05T18:16:55.934442 , 87.0 , 0.0 , 0.0 , 4200.51282051 , 4284.61538462 , 4268.71794872 , 4294.87179487 , 4196.92307692 , 4247.17948718 , 4257.94871795 , 4196.41025641 , 4197.43589744 , 4194.35897436 , 4184.61538462 , 4953.33333333 , 4089.23076923 , 4108.20512821 , 4.41834289511 , 0.0 , 0.0 , 0.0 , 0.0 , 0.0 , 

2016-10-05T18:16:55.934821 , 88.0 , 0.0 , 0.0 , 4210.76923077 , 4299.48717949 , 4283.07692308 , 4308.20512821 , 4207.17948718 , 4249.23076923 , 4266.15384615 , 4192.82051282 , 4195.8974359 , 4194.87179487 , 4168.20512821 , 4953.33333333 , 4056.41025641 , 4092.82051282 , 4.42565905893 , 0.0 , 0.0 , 0.0 , 0.0 , 0.0 , 

2016-10-05T18:16:55.935425 , 89.0 , 0.0 , 0.0 , 4211.79487179 , 4302.05128205 , 4292.82051282 , 4317.94871795 , 4202.05128205 , 4236.41025641 , 4254.35897436 , 4193.84615385 , 4195.8974359 , 4199.48717949 , 4171.79487179 , 4958.97435897 , 4052.82051282 , 4085.64102564 , 4.43297522276 , 0.0 , 0.0 , 0.0 , 0.0 , 0.0 , 

2016-10-05T18:16:55.936190 , 90.0 , 0.0 , 0.0 , 4214.87179487 , 4309.74358974 , 4298.46153846 , 4323.58974359 , 4198.97435897 , 4242.56410256 , 4252.82051282 , 4196.92307692 , 4196.92307692 , 4200.51282051 , 4165.64102564 , 4951.79487179 , 4070.25641026 , 4082.56410256 , 4.44029138659 , 0.0 , 0.0 , 0.0 , 0.0 , 0.0 , 

2016-10-05T18:16:55.944557 , 91.0 , 0.0 , 0.0 , 4204.61538462 , 4299.48717949 , 4292.82051282 , 4304.1025641 , 4193.33333333 , 4240.51282051 , 4250.25641026 , 4194.35897436 , 4198.46153846 , 4198.46153846 , 4160.51282051 , 4948.71794872 , 4082.56410256 , 4090.76923077 , 4.44760755041 , 0.0 , 0.0 , 0.0 , 0.0 , 0.0 , 

2016-10-05T18:16:55.945069 , 92.0 , 0.0 , 0.0 , 4193.84615385 , 4276.41025641 , 4296.41025641 , 4293.84615385 , 4181.02564103 , 4220.0 , 4237.43589744 , 4192.30769231 , 4197.43589744 , 4201.02564103 , 4161.53846154 , 4952.82051282 , 4078.46153846 , 4091.28205128 , 4.45492371424 , 0.0 , 0.0 , 0.0 , 0.0 , 0.0 , 

2016-10-05T18:16:55.945994 , 93.0 , 0.0 , 0.0 , 4191.79487179 , 4265.64102564 , 4301.02564103 , 4293.33333333 , 4176.92307692 , 4210.76923077 , 4230.76923077 , 4194.35897436 , 4195.8974359 , 4199.48717949 , 4158.97435897 , 4951.79487179 , 4075.38461538 , 4097.94871795 , 4.46223987807 , 0.0 , 0.0 , 0.0 , 0.0 , 0.0 , 

2016-10-05T18:16:55.946956 , 94.0 , 0.0 , 0.0 , 4189.74358974 , 4272.30769231 , 4289.23076923 , 4285.12820513 , 4184.61538462 , 4225.12820513 , 4244.1025641 , 4195.38461538 , 4194.35897436 , 4195.38461538 , 4150.76923077 , 4947.17948718 , 4068.71794872 , 4111.79487179 , 4.46955604189 , 0.0 , 0.0 , 0.0 , 0.0 , 0.0 , 

2016-10-05T18:16:55.947963 , 95.0 , 0.0 , 0.0 , 4190.25641026 , 4280.0 , 4284.1025641 , 4282.05128205 , 4196.41025641 , 4246.66666667 , 4260.51282051 , 4192.82051282 , 4193.84615385 , 4192.30769231 , 4149.23076923 , 4945.12820513 , 4069.23076923 , 4114.35897436 , 4.47687220572 , 0.0 , 0.0 , 0.0 , 0.0 , 0.0 , 

2016-10-05T18:16:55.948614 , 96.0 , 0.0 , 0.0 , 4188.71794872 , 4267.69230769 , 4268.71794872 , 4274.87179487 , 4196.41025641 , 4243.58974359 , 4253.84615385 , 4196.41025641 , 4198.46153846 , 4196.92307692 , 4174.35897436 , 4956.92307692 , 4096.92307692 , 4129.23076923 , 4.48418836955 , 0.0 , 0.0 , 0.0 , 0.0 , 0.0 , 

2016-10-05T18:16:55.949623 , 97.0 , 0.0 , 0.0 , 4200.51282051 , 4277.43589744 , 4277.94871795 , 4294.35897436 , 4204.1025641 , 4249.74358974 , 4267.69230769 , 4195.8974359 , 4198.97435897 , 4194.35897436 , 4161.53846154 , 4949.74358974 , 4073.84615385 , 4110.76923077 , 4.49150453338 , 0.0 , 0.0 , 0.0 , 0.0 , 0.0 , 

2016-10-05T18:16:55.950239 , 98.0 , 0.0 , 0.0 , 4183.58974359 , 4262.56410256 , 4260.0 , 4278.97435897 , 4183.07692308 , 4231.79487179 , 4253.84615385 , 4192.82051282 , 4196.92307692 , 4195.38461538 , 4169.74358974 , 4951.79487179 , 4080.0 , 4116.41025641 , 4.4988206972 , 0.0 , 0.0 , 0.0 , 0.0 , 0.0 , 

2016-10-05T18:16:55.950745 , 99.0 , 0.0 , 0.0 , 4196.41025641 , 4276.92307692 , 4268.20512821 , 4289.23076923 , 4190.76923077 , 4243.58974359 , 4261.53846154 , 4191.79487179 , 4197.43589744 , 4195.38461538 , 4172.82051282 , 4951.79487179 , 4085.64102564 , 4111.28205128 , 4.50613686103 , 0.0 , 0.0 , 0.0 , 0.0 , 0.0 , 

2016-10-05T18:16:55.952027 , 100.0 , 0.0 , 0.0 , 4200.51282051 , 4278.97435897 , 4268.20512821 , 4290.76923077 , 4193.33333333 , 4246.66666667 , 4265.12820513 , 4196.41025641 , 4198.46153846 , 4200.0 , 4188.71794872 , 4958.46153846 , 4100.51282051 , 4121.53846154 , 4.51345302486 , 0.0 , 0.0 , 0.0 , 0.0 , 0.0 , 

2016-10-05T18:16:55.952494 , 101.0 , 0.0 , 0.0 , 4203.58974359 , 4289.23076923 , 4282.56410256 , 4304.1025641 , 4192.82051282 , 4251.79487179 , 4273.84615385 , 4196.41025641 , 4193.33333333 , 4197.94871795 , 4173.84615385 , 4951.79487179 , 4071.79487179 , 4098.97435897 , 4.52076918868 , 0.0 , 0.0 , 0.0 , 0.0 , 0.0 , 

2016-10-05T18:16:55.952975 , 102.0 , 0.0 , 0.0 , 4193.33333333 , 4275.38461538 , 4270.76923077 , 4288.71794872 , 4177.94871795 , 4226.15384615 , 4245.64102564 , 4193.84615385 , 4192.30769231 , 4198.97435897 , 4181.02564103 , 4962.56410256 , 4083.07692308 , 4106.15384615 , 4.52808535251 , 0.0 , 0.0 , 0.0 , 0.0 , 0.0 , 

2016-10-05T18:16:55.953347 , 103.0 , 0.0 , 0.0 , 4214.87179487 , 4302.05128205 , 4300.51282051 , 4311.79487179 , 4196.41025641 , 4238.97435897 , 4260.0 , 4191.28205128 , 4193.84615385 , 4196.92307692 , 4154.35897436 , 4957.94871795 , 4063.07692308 , 4089.74358974 , 4.53540151634 , 0.0 , 0.0 , 0.0 , 0.0 , 0.0 , 

2016-10-05T18:16:55.953697 , 104.0 , 0.0 , 0.0 , 4201.53846154 , 4295.38461538 , 4290.76923077 , 4294.35897436 , 4190.76923077 , 4234.35897436 , 4254.87179487 , 4192.82051282 , 4193.84615385 , 4198.97435897 , 4156.92307692 , 4965.12820513 , 4080.0 , 4108.71794872 , 4.54271768016 , 0.0 , 0.0 , 0.0 , 0.0 , 0.0 , 

2016-10-05T18:16:55.954170 , 105.0 , 0.0 , 0.0 , 4196.41025641 , 4286.15384615 , 4283.58974359 , 4282.05128205 , 4190.25641026 , 4235.8974359 , 4252.30769231 , 4194.87179487 , 4193.84615385 , 4195.8974359 , 4154.87179487 , 4961.02564103 , 4087.17948718 , 4116.41025641 , 4.55003384399 , 0.0 , 0.0 , 0.0 , 0.0 , 0.0 , 

2016-10-05T18:16:55.955562 , 106.0 , 0.0 , 0.0 , 4193.33333333 , 4265.64102564 , 4286.66666667 , 4279.48717949 , 4177.43589744 , 4221.53846154 , 4235.38461538 , 4194.35897436 , 4194.35897436 , 4195.38461538 , 4161.53846154 , 4962.56410256 , 4094.87179487 , 4126.15384615 , 4.55735000782 , 0.0 , 0.0 , 0.0 , 0.0 , 0.0 , 

2016-10-05T18:16:55.956148 , 107.0 , 0.0 , 0.0 , 4206.15384615 , 4274.87179487 , 4304.1025641 , 4292.82051282 , 4182.56410256 , 4235.38461538 , 4247.69230769 , 4193.33333333 , 4193.33333333 , 4195.8974359 , 4140.51282051 , 4956.92307692 , 4069.23076923 , 4104.61538462 , 4.56466617164 , 0.0 , 0.0 , 0.0 , 0.0 , 0.0 , 

2016-10-05T18:16:55.958241 , 108.0 , 0.0 , 0.0 , 4198.97435897 , 4263.58974359 , 4279.48717949 , 4270.25641026 , 4185.64102564 , 4239.48717949 , 4246.66666667 , 4194.35897436 , 4193.33333333 , 4196.41025641 , 4142.05128205 , 4957.94871795 , 4083.58974359 , 4109.23076923 , 4.57198233547 , 0.0 , 0.0 , 0.0 , 0.0 , 0.0 , 

2016-10-05T18:16:55.958626 , 109.0 , 0.0 , 0.0 , 4200.0 , 4273.84615385 , 4266.66666667 , 4280.0 , 4201.02564103 , 4247.17948718 , 4250.76923077 , 4192.82051282 , 4195.38461538 , 4197.43589744 , 4157.94871795 , 4958.46153846 , 4088.71794872 , 4122.05128205 , 4.5792984993 , 0.0 , 0.0 , 0.0 , 0.0 , 0.0 , 

2016-10-05T18:16:55.959184 , 110.0 , 0.0 , 0.0 , 4205.64102564 , 4296.41025641 , 4282.56410256 , 4313.84615385 , 4211.28205128 , 4258.46153846 , 4260.51282051 , 4191.28205128 , 4195.8974359 , 4197.43589744 , 4176.41025641 , 4962.05128205 , 4065.64102564 , 4121.02564103 , 4.58661466312 , 0.0 , 0.0 , 0.0 , 0.0 , 0.0 , 

2016-10-05T18:16:55.960039 , 111.0 , 0.0 , 0.0 , 4201.53846154 , 4292.82051282 , 4291.28205128 , 4317.43589744 , 4204.61538462 , 4256.41025641 , 4264.61538462 , 4193.33333333 , 4194.35897436 , 4197.94871795 , 4179.48717949 , 4963.07692308 , 4052.30769231 , 4104.1025641 , 4.59393082695 , 0.0 , 0.0 , 0.0 , 0.0 , 0.0 , 

2016-10-05T18:16:55.960746 , 112.0 , 0.0 , 0.0 , 4193.84615385 , 4277.94871795 , 4286.66666667 , 4301.53846154 , 4194.87179487 , 4243.07692308 , 4256.41025641 , 4193.33333333 , 4194.35897436 , 4199.48717949 , 4173.84615385 , 4960.0 , 4073.33333333 , 4099.48717949 , 4.60124699078 , 0.0 , 0.0 , 0.0 , 0.0 , 0.0 , 

2016-10-05T18:16:55.961099 , 113.0 , 0.0 , 0.0 , 4197.43589744 , 4292.30769231 , 4285.12820513 , 4311.79487179 , 4196.92307692 , 4242.05128205 , 4251.79487179 , 4192.82051282 , 4195.8974359 , 4202.56410256 , 4177.94871795 , 4961.53846154 , 4071.79487179 , 4102.05128205 , 4.6085631546 , 0.0 , 0.0 , 0.0 , 0.0 , 0.0 , 

2016-10-05T18:16:55.962139 , 114.0 , 0.0 , 0.0 , 4212.82051282 , 4313.33333333 , 4297.94871795 , 4328.20512821 , 4207.17948718 , 4250.25641026 , 4257.94871795 , 4194.87179487 , 4196.41025641 , 4200.51282051 , 4167.17948718 , 4955.8974359 , 4048.71794872 , 4085.12820513 , 4.61587931843 , 0.0 , 0.0 , 0.0 , 0.0 , 0.0 , 

2016-10-05T18:16:55.962691 , 115.0 , 0.0 , 0.0 , 4201.02564103 , 4293.33333333 , 4281.53846154 , 4301.53846154 , 4188.71794872 , 4225.64102564 , 4244.1025641 , 4198.46153846 , 4198.46153846 , 4200.51282051 , 4167.17948718 , 4956.41025641 , 4077.43589744 , 4091.28205128 , 4.62319548226 , 0.0 , 0.0 , 0.0 , 0.0 , 0.0 , 

2016-10-05T18:16:55.963159 , 116.0 , 0.0 , 0.0 , 4205.64102564 , 4300.0 , 4302.56410256 , 4312.30769231 , 4190.76923077 , 4236.92307692 , 4258.97435897 , 4195.38461538 , 4198.46153846 , 4195.8974359 , 4140.0 , 4944.61538462 , 4062.56410256 , 4074.87179487 , 4.63051164608 , 0.0 , 0.0 , 0.0 , 0.0 , 0.0 , 

2016-10-05T18:16:55.963564 , 117.0 , 0.0 , 0.0 , 4190.76923077 , 4283.58974359 , 4301.02564103 , 4300.51282051 , 4181.53846154 , 4230.25641026 , 4249.23076923 , 4195.38461538 , 4197.43589744 , 4197.43589744 , 4145.64102564 , 4948.20512821 , 4065.12820513 , 4086.66666667 , 4.63782780991 , 0.0 , 0.0 , 0.0 , 0.0 , 0.0 , 

2016-10-05T18:16:55.964065 , 118.0 , 0.0 , 0.0 , 4189.23076923 , 4278.46153846 , 4295.8974359 , 4290.25641026 , 4182.05128205 , 4229.74358974 , 4248.71794872 , 4195.8974359 , 4197.94871795 , 4199.48717949 , 4149.74358974 , 4944.1025641 , 4084.61538462 , 4097.43589744 , 4.64514397374 , 0.0 , 0.0 , 0.0 , 0.0 , 0.0 , 

2016-10-05T18:16:56.965804 , 1.0 , 0.0 , 0.0 , 4195.38461538 , 4267.17948718 , 4287.69230769 , 4282.05128205 , 4187.69230769 , 4220.51282051 , 4246.66666667 , 4193.33333333 , 4197.94871795 , 4198.97435897 , 4152.82051282 , 4944.1025641 , 4072.82051282 , 4093.84615385 , 4.73293793966 , 0.0 , 0.0 , 0.0 , 0.0 , 0.0 , 

2016-10-05T18:16:56.966092 , 2.0 , 0.0 , 0.0 , 4184.1025641 , 4264.1025641 , 4287.69230769 , 4277.43589744 , 4182.56410256 , 4228.20512821 , 4245.64102564 , 4194.87179487 , 4197.43589744 , 4194.87179487 , 4149.74358974 , 4943.58974359 , 4073.33333333 , 4101.02564103 , 4.74024653341 , 0.0 , 0.0 , 0.0 , 0.0 , 0.0 , 

2016-10-05T18:16:56.966341 , 3.0 , 0.0 , 0.0 , 4181.02564103 , 4265.12820513 , 4277.43589744 , 4267.17948718 , 4181.53846154 , 4233.84615385 , 4248.20512821 , 4195.8974359 , 4196.92307692 , 4194.87179487 , 4150.25641026 , 4947.17948718 , 4092.30769231 , 4114.87179487 , 4.74755512716 , 0.0 , 0.0 , 0.0 , 0.0 , 0.0 , 

2016-10-05T18:16:56.966846 , 4.0 , 0.0 , 0.0 , 4205.64102564 , 4281.02564103 , 4291.79487179 , 4284.1025641 , 4204.1025641 , 4256.92307692 , 4270.76923077 , 4191.79487179 , 4195.8974359 , 4192.82051282 , 4138.46153846 , 4942.56410256 , 4069.23076923 , 4103.07692308 , 4.75490278341 , 0.0 , 0.0 , 0.0 , 0.0 , 0.0 , 

2016-10-05T18:16:56.967180 , 5.0 , 0.0 , 0.0 , 4200.0 , 4265.12820513 , 4270.25641026 , 4277.94871795 , 4198.97435897 , 4254.35897436 , 4257.43589744 , 4190.76923077 , 4195.8974359 , 4194.35897436 , 4155.8974359 , 4951.79487179 , 4076.41025641 , 4114.87179487 , 4.76226997091 , 0.0 , 0.0 , 0.0 , 0.0 , 0.0 , 

2016-10-05T18:16:56.967431 , 6.0 , 0.0 , 0.0 , 4200.0 , 4269.74358974 , 4263.07692308 , 4285.12820513 , 4198.97435897 , 4257.94871795 , 4257.94871795 , 4193.33333333 , 4196.92307692 , 4194.35897436 , 4157.43589744 , 4949.23076923 , 4076.92307692 , 4113.84615385 , 4.76963715841 , 0.0 , 0.0 , 0.0 , 0.0 , 0.0 , 

2016-10-05T18:16:56.967657 , 7.0 , 0.0 , 0.0 , 4197.94871795 , 4272.82051282 , 4266.15384615 , 4288.71794872 , 4196.92307692 , 4246.15384615 , 4259.48717949 , 4194.87179487 , 4197.94871795 , 4200.0 , 4175.8974359 , 4956.41025641 , 4076.41025641 , 4119.48717949 , 4.77704229675 , 0.0 , 0.0 , 0.0 , 0.0 , 0.0 , 

2016-10-05T18:16:56.967866 , 8.0 , 0.0 , 0.0 , 4215.38461538 , 4302.05128205 , 4295.8974359 , 4319.48717949 , 4210.76923077 , 4253.84615385 , 4271.79487179 , 4192.82051282 , 4196.41025641 , 4197.43589744 , 4170.76923077 , 4953.84615385 , 4060.51282051 , 4097.43589744 , 4.78444743509 , 0.0 , 0.0 , 0.0 , 0.0 , 0.0 , 

2016-10-05T18:16:56.968292 , 9.0 , 0.0 , 0.0 , 4203.58974359 , 4291.79487179 , 4277.94871795 , 4303.58974359 , 4200.0 , 4233.33333333 , 4244.1025641 , 4193.84615385 , 4195.38461538 , 4197.94871795 , 4183.07692308 , 4961.53846154 , 4087.69230769 , 4105.64102564 , 4.79185257343 , 0.0 , 0.0 , 0.0 , 0.0 , 0.0 , 

2016-10-05T18:16:56.970182 , 10.0 , 0.0 , 0.0 , 4203.58974359 , 4298.46153846 , 4286.66666667 , 4303.58974359 , 4201.53846154 , 4236.92307692 , 4251.79487179 , 4193.84615385 , 4194.35897436 , 4198.97435897 , 4163.58974359 , 4953.33333333 , 4053.33333333 , 4080.0 , 4.79925771177 , 0.0 , 0.0 , 0.0 , 0.0 , 0.0 , 

2016-10-05T18:16:56.970651 , 11.0 , 0.0 , 0.0 , 4195.8974359 , 4289.74358974 , 4290.25641026 , 4300.0 , 4185.12820513 , 4226.15384615 , 4247.17948718 , 4192.30769231 , 4195.38461538 , 4201.53846154 , 4164.1025641 , 4954.87179487 , 4055.8974359 , 4077.43589744 , 4.80657021177 , 0.0 , 0.0 , 0.0 , 0.0 , 0.0 , 

2016-10-05T18:16:56.976716 , 12.0 , 0.0 , 0.0 , 4215.38461538 , 4310.25641026 , 4308.20512821 , 4321.53846154 , 4204.1025641 , 4243.07692308 , 4254.87179487 , 4192.82051282 , 4195.8974359 , 4196.41025641 , 4143.58974359 , 4940.51282051 , 4068.20512821 , 4070.76923077 , 4.81394911802 , 0.0 , 0.0 , 0.0 , 0.0 , 0.0 , 

2016-10-05T18:16:56.977076 , 13.0 , 0.0 , 0.0 , 4204.61538462 , 4290.25641026 , 4286.15384615 , 4287.69230769 , 4205.12820513 , 4230.25641026 , 4234.87179487 , 4196.92307692 , 4196.92307692 , 4198.46153846 , 4147.17948718 , 4945.12820513 , 4088.71794872 , 4091.28205128 , 4.82129286802 , 0.0 , 0.0 , 0.0 , 0.0 , 0.0 , 

2016-10-05T18:16:56.977444 , 14.0 , 0.0 , 0.0 , 4201.53846154 , 4283.07692308 , 4295.38461538 , 4284.61538462 , 4198.97435897 , 4229.74358974 , 4241.53846154 , 4195.8974359 , 4197.43589744 , 4199.48717949 , 4137.94871795 , 4945.12820513 , 4053.33333333 , 4078.46153846 , 4.82863661802 , 0.0 , 0.0 , 0.0 , 0.0 , 0.0 , 

2016-10-05T18:16:56.978185 , 15.0 , 0.0 , 0.0 , 4199.48717949 , 4269.74358974 , 4296.92307692 , 4291.79487179 , 4190.76923077 , 4236.41025641 , 4245.64102564 , 4192.30769231 , 4197.94871795 , 4197.43589744 , 4147.17948718 , 4943.07692308 , 4066.15384615 , 4093.33333333 , 4.83594130552 , 0.0 , 0.0 , 0.0 , 0.0 , 0.0 , 

2016-10-05T18:16:56.978672 , 16.0 , 0.0 , 0.0 , 4193.33333333 , 4268.71794872 , 4281.53846154 , 4288.71794872 , 4199.48717949 , 4247.17948718 , 4257.43589744 , 4192.82051282 , 4196.41025641 , 4194.35897436 , 4151.28205128 , 4940.0 , 4075.8974359 , 4114.35897436 , 4.84334644386 , 0.0 , 0.0 , 0.0 , 0.0 , 0.0 , 

2016-10-05T18:16:56.979522 , 17.0 , 0.0 , 0.0 , 4185.12820513 , 4274.35897436 , 4267.17948718 , 4275.38461538 , 4197.43589744 , 4242.05128205 , 4256.92307692 , 4195.38461538 , 4196.41025641 , 4196.92307692 , 4163.07692308 , 4946.66666667 , 4070.76923077 , 4124.61538462 , 4.85071753761 , 0.0 , 0.0 , 0.0 , 0.0 , 0.0 , 

2016-10-05T18:16:56.979870 , 18.0 , 0.0 , 0.0 , 4200.0 , 4294.87179487 , 4278.97435897 , 4296.41025641 , 4205.64102564 , 4254.87179487 , 4267.69230769 , 4195.8974359 , 4198.97435897 , 4195.8974359 , 4164.61538462 , 4946.66666667 , 4062.56410256 , 4105.64102564 , 4.85804566261 , 0.0 , 0.0 , 0.0 , 0.0 , 0.0 , 

2016-10-05T18:16:56.980285 , 19.0 , 0.0 , 0.0 , 4194.87179487 , 4284.61538462 , 4273.33333333 , 4297.94871795 , 4208.71794872 , 4258.46153846 , 4270.76923077 , 4194.35897436 , 4198.97435897 , 4193.84615385 , 4167.17948718 , 4942.05128205 , 4074.35897436 , 4098.97435897 , 4.86542456886 , 0.0 , 0.0 , 0.0 , 0.0 , 0.0 , 

2016-10-05T18:16:56.981246 , 20.0 , 0.0 , 0.0 , 4181.53846154 , 4269.74358974 , 4254.87179487 , 4282.56410256 , 4199.48717949 , 4241.02564103 , 4263.07692308 , 4195.8974359 , 4197.94871795 , 4198.97435897 , 4178.97435897 , 4937.43589744 , 4076.41025641 , 4107.17948718 , 4.87273706886 , 0.0 , 0.0 , 0.0 , 0.0 , 0.0 , 

2016-10-05T18:16:56.981742 , 21.0 , 0.0 , 0.0 , 4193.84615385 , 4292.82051282 , 4275.8974359 , 4306.15384615 , 4205.12820513 , 4255.8974359 , 4281.02564103 , 4197.43589744 , 4198.97435897 , 4195.8974359 , 4166.66666667 , 4922.05128205 , 4050.25641026 , 4076.92307692 , 4.88011206886 , 0.0 , 0.0 , 0.0 , 0.0 , 0.0 , 

2016-10-05T18:16:56.982160 , 22.0 , 0.0 , 0.0 , 4190.25641026 , 4304.1025641 , 4282.56410256 , 4312.30769231 , 4208.71794872 , 4269.23076923 , 4295.38461538 , 4197.94871795 , 4201.02564103 , 4193.84615385 , 4161.02564103 , 4918.46153846 , 4045.64102564 , 4051.79487179 , 4.88745581886 , 0.0 , 0.0 , 0.0 , 0.0 , 0.0 , 

2016-10-05T18:16:56.982528 , 23.0 , 0.0 , 0.0 , 4197.94871795 , 4312.30769231 , 4283.58974359 , 4308.71794872 , 4217.43589744 , 4268.71794872 , 4298.46153846 , 4193.84615385 , 4199.48717949 , 4195.38461538 , 4161.53846154 , 4921.02564103 , 4043.07692308 , 4056.92307692 , 4.89481519386 , 0.0 , 0.0 , 0.0 , 0.0 , 0.0 , 

2016-10-05T18:16:56.983244 , 24.0 , 0.0 , 0.0 , 4200.51282051 , 4294.87179487 , 4269.74358974 , 4291.28205128 , 4204.1025641 , 4242.05128205 , 4271.28205128 , 4194.35897436 , 4196.92307692 , 4202.56410256 , 4175.38461538 , 4936.92307692 , 4072.82051282 , 4094.35897436 , 4.9022203322 , 0.0 , 0.0 , 0.0 , 0.0 , 0.0 , 

2016-10-05T18:16:56.983665 , 25.0 , 0.0 , 0.0 , 4204.61538462 , 4293.84615385 , 4298.97435897 , 4307.17948718 , 4202.05128205 , 4242.56410256 , 4265.64102564 , 4196.92307692 , 4196.41025641 , 4198.97435897 , 4141.53846154 , 4939.48717949 , 4058.46153846 , 4072.82051282 , 4.90962547054 , 0.0 , 0.0 , 0.0 , 0.0 , 0.0 , 

2016-10-05T18:16:56.984057 , 26.0 , 0.0 , 0.0 , 4195.38461538 , 4275.8974359 , 4304.1025641 , 4293.84615385 , 4189.74358974 , 4225.64102564 , 4241.53846154 , 4196.92307692 , 4197.94871795 , 4197.94871795 , 4141.53846154 , 4949.74358974 , 4064.61538462 , 4083.58974359 , 4.91701218929 , 0.0 , 0.0 , 0.0 , 0.0 , 0.0 , 

2016-10-05T18:16:56.984628 , 27.0 , 0.0 , 0.0 , 4208.71794872 , 4284.1025641 , 4306.15384615 , 4296.92307692 , 4194.35897436 , 4233.84615385 , 4247.17948718 , 4194.35897436 , 4195.8974359 , 4195.8974359 , 4147.69230769 , 4944.1025641 , 4066.15384615 , 4098.46153846 , 4.92435593929 , 0.0 , 0.0 , 0.0 , 0.0 , 0.0 , 

2016-10-05T18:16:56.984988 , 28.0 , 0.0 , 0.0 , 4188.71794872 , 4261.02564103 , 4280.51282051 , 4278.97435897 , 4178.46153846 , 4226.15384615 , 4238.46153846 , 4196.92307692 , 4196.41025641 , 4197.94871795 , 4166.66666667 , 4951.28205128 , 4085.12820513 , 4120.51282051 , 4.93176107763 , 0.0 , 0.0 , 0.0 , 0.0 , 0.0 , 

2016-10-05T18:16:56.985303 , 29.0 , 0.0 , 0.0 , 4194.87179487 , 4271.79487179 , 4295.38461538 , 4297.43589744 , 4188.20512821 , 4234.87179487 , 4253.33333333 , 4195.38461538 , 4196.41025641 , 4195.38461538 , 4146.66666667 , 4950.25641026 , 4053.84615385 , 4103.58974359 , 4.93912826513 , 0.0 , 0.0 , 0.0 , 0.0 , 0.0 , 

2016-10-05T18:16:56.985653 , 30.0 , 0.0 , 0.0 , 4192.82051282 , 4271.79487179 , 4273.84615385 , 4285.64102564 , 4188.20512821 , 4220.51282051 , 4249.23076923 , 4192.82051282 , 4196.41025641 , 4195.8974359 , 4164.1025641 , 4960.0 , 4083.07692308 , 4121.02564103 , 4.94649545263 , 0.0 , 0.0 , 0.0 , 0.0 , 0.0 , 

2016-10-05T18:16:56.986000 , 31.0 , 0.0 , 0.0 , 4202.05128205 , 4286.15384615 , 4259.48717949 , 4288.71794872 , 4208.20512821 , 4247.17948718 , 4272.82051282 , 4194.35897436 , 4196.41025641 , 4192.82051282 , 4166.66666667 , 4950.25641026 , 4098.46153846 , 4115.8974359 , 4.95387435888 , 0.0 , 0.0 , 0.0 , 0.0 , 0.0 , 

2016-10-05T18:16:56.986391 , 32.0 , 0.0 , 0.0 , 4189.74358974 , 4264.1025641 , 4249.74358974 , 4273.33333333 , 4201.53846154 , 4258.97435897 , 4272.30769231 , 4196.41025641 , 4196.92307692 , 4194.87179487 , 4179.48717949 , 4954.35897436 , 4093.84615385 , 4123.07692308 , 4.96118685888 , 0.0 , 0.0 , 0.0 , 0.0 , 0.0 , 

2016-10-05T18:16:56.986628 , 33.0 , 0.0 , 0.0 , 4197.94871795 , 4275.8974359 , 4273.84615385 , 4289.74358974 , 4198.97435897 , 4256.92307692 , 4269.23076923 , 4194.87179487 , 4196.41025641 , 4195.38461538 , 4172.82051282 , 4955.38461538 , 4058.97435897 , 4105.12820513 , 4.96859199722 , 0.0 , 0.0 , 0.0 , 0.0 , 0.0 , 

2016-10-05T18:16:56.986931 , 34.0 , 0.0 , 0.0 , 4207.69230769 , 4295.8974359 , 4276.92307692 , 4303.58974359 , 4198.97435897 , 4242.56410256 , 4252.82051282 , 4196.92307692 , 4196.92307692 , 4197.43589744 , 4174.87179487 , 4957.94871795 , 4080.51282051 , 4101.53846154 , 4.97692793472 , 0.0 , 0.0 , 0.0 , 0.0 , 0.0 , 

2016-10-05T18:16:56.987164 , 35.0 , 0.0 , 0.0 , 4213.33333333 , 4304.1025641 , 4281.53846154 , 4308.20512821 , 4205.12820513 , 4251.28205128 , 4261.02564103 , 4195.8974359 , 4197.43589744 , 4198.46153846 , 4176.92307692 , 4954.35897436 , 4081.53846154 , 4098.97435897 , 4.98526387222 , 0.0 , 0.0 , 0.0 , 0.0 , 0.0 , 

2016-10-05T18:16:56.987389 , 36.0 , 0.0 , 0.0 , 4201.02564103 , 4286.15384615 , 4289.23076923 , 4292.82051282 , 4197.43589744 , 4242.05128205 , 4255.8974359 , 4192.30769231 , 4198.97435897 , 4200.51282051 , 4184.1025641 , 4955.38461538 , 4065.12820513 , 4095.8974359 , 4.99362715347 , 0.0 , 0.0 , 0.0 , 0.0 , 0.0 , 

2016-10-05T18:16:56.987601 , 37.0 , 0.0 , 0.0 , 4200.0 , 4282.56410256 , 4300.51282051 , 4302.05128205 , 4188.71794872 , 4220.51282051 , 4235.8974359 , 4194.87179487 , 4202.05128205 , 4202.56410256 , 4162.56410256 , 4953.84615385 , 4062.05128205 , 4078.46153846 , 5.00199043472 , 0.0 , 0.0 , 0.0 , 0.0 , 0.0 , 

2016-10-05T18:16:56.987826 , 38.0 , 0.0 , 0.0 , 4207.17948718 , 4281.53846154 , 4303.07692308 , 4309.74358974 , 4184.61538462 , 4216.41025641 , 4233.33333333 , 4196.41025641 , 4199.48717949 , 4201.02564103 , 4143.07692308 , 4948.71794872 , 4076.41025641 , 4081.53846154 , 5.01037715347 , 0.0 , 0.0 , 0.0 , 0.0 , 0.0 , 

2016-10-05T18:16:56.988091 , 39.0 , 0.0 , 0.0 , 4202.56410256 , 4269.74358974 , 4290.76923077 , 4284.61538462 , 4183.07692308 , 4225.12820513 , 4246.66666667 , 4194.87179487 , 4194.87179487 , 4196.92307692 , 4155.8974359 , 4948.71794872 , 4089.74358974 , 4102.56410256 , 5.01876387222 , 0.0 , 0.0 , 0.0 , 0.0 , 0.0 , 

2016-10-05T18:16:56.988312 , 40.0 , 0.0 , 0.0 , 4200.51282051 , 4267.17948718 , 4298.97435897 , 4281.53846154 , 4185.12820513 , 4231.79487179 , 4250.76923077 , 4192.82051282 , 4194.35897436 , 4191.28205128 , 4149.74358974 , 4948.20512821 , 4079.48717949 , 4096.41025641 , 5.02709199722 , 0.0 , 0.0 , 0.0 , 0.0 , 0.0 , 

2016-10-05T18:16:56.990872 , 41.0 , 0.0 , 0.0 , 4184.61538462 , 4247.69230769 , 4285.64102564 , 4280.51282051 , 4170.25641026 , 4218.46153846 , 4232.30769231 , 4194.87179487 , 4195.8974359 , 4197.43589744 , 4152.82051282 , 4957.94871795 , 4087.69230769 , 4111.28205128 , 5.03548262222 , 0.0 , 0.0 , 0.0 , 0.0 , 0.0 , 

2016-10-05T18:16:56.991606 , 42.0 , 0.0 , 0.0 , 4189.23076923 , 4258.97435897 , 4280.0 , 4284.1025641 , 4185.12820513 , 4238.46153846 , 4251.28205128 , 4193.84615385 , 4194.87179487 , 4197.43589744 , 4156.92307692 , 4953.33333333 , 4080.0 , 4123.58974359 , 5.04378730972 , 0.0 , 0.0 , 0.0 , 0.0 , 0.0 , 

2016-10-05T18:16:56.992035 , 43.0 , 0.0 , 0.0 , 4193.84615385 , 4274.35897436 , 4262.56410256 , 4275.8974359 , 4202.56410256 , 4253.33333333 , 4262.56410256 , 4193.84615385 , 4196.92307692 , 4193.84615385 , 4177.43589744 , 4955.8974359 , 4092.82051282 , 4137.43589744 , 5.05209199722 , 0.0 , 0.0 , 0.0 , 0.0 , 0.0 , 

2016-10-05T18:16:56.992764 , 44.0 , 0.0 , 0.0 , 4203.58974359 , 4292.30769231 , 4270.76923077 , 4297.94871795 , 4208.20512821 , 4266.66666667 , 4271.79487179 , 4192.82051282 , 4197.43589744 , 4193.84615385 , 4167.17948718 , 4951.79487179 , 4078.97435897 , 4109.74358974 , 5.06046309097 , 0.0 , 0.0 , 0.0 , 0.0 , 0.0 , 

2016-10-05T18:16:56.993197 , 45.0 , 0.0 , 0.0 , 4185.64102564 , 4273.33333333 , 4262.56410256 , 4288.20512821 , 4184.1025641 , 4239.48717949 , 4250.25641026 , 4195.38461538 , 4197.94871795 , 4204.1025641 , 4178.97435897 , 4957.43589744 , 4083.58974359 , 4109.23076923 , 5.06877949722 , 0.0 , 0.0 , 0.0 , 0.0 , 0.0 , 

2016-10-05T18:16:56.993649 , 46.0 , 0.0 , 0.0 , 4199.48717949 , 4297.43589744 , 4293.33333333 , 4309.74358974 , 4194.35897436 , 4237.94871795 , 4254.35897436 , 4195.8974359 , 4200.51282051 , 4201.53846154 , 4164.1025641 , 4952.30769231 , 4055.8974359 , 4088.71794872 , 5.07713496597 , 0.0 , 0.0 , 0.0 , 0.0 , 0.0 , 

2016-10-05T18:16:56.994005 , 47.0 , 0.0 , 0.0 , 4199.48717949 , 4297.94871795 , 4292.82051282 , 4312.82051282 , 4193.33333333 , 4229.74358974 , 4240.0 , 4193.84615385 , 4201.02564103 , 4199.48717949 , 4180.0 , 4964.1025641 , 4074.35897436 , 4103.07692308 , 5.08548262222 , 0.0 , 0.0 , 0.0 , 0.0 , 0.0 , 

2016-10-05T18:16:56.994349 , 48.0 , 0.0 , 0.0 , 4206.66666667 , 4306.66666667 , 4298.46153846 , 4325.64102564 , 4199.48717949 , 4250.25641026 , 4261.02564103 , 4192.30769231 , 4197.94871795 , 4198.97435897 , 4168.71794872 , 4955.8974359 , 4062.05128205 , 4089.74358974 , 5.09383027847 , 0.0 , 0.0 , 0.0 , 0.0 , 0.0 , 

2016-10-05T18:16:56.994715 , 49.0 , 0.0 , 0.0 , 4193.33333333 , 4287.69230769 , 4281.02564103 , 4293.84615385 , 4183.58974359 , 4234.35897436 , 4253.33333333 , 4194.35897436 , 4197.94871795 , 4202.56410256 , 4167.17948718 , 4955.38461538 , 4073.84615385 , 4094.35897436 , 5.10222480972 , 0.0 , 0.0 , 0.0 , 0.0 , 0.0 , 

2016-10-05T18:16:56.995157 , 50.0 , 0.0 , 0.0 , 4205.64102564 , 4292.82051282 , 4287.69230769 , 4292.30769231 , 4197.94871795 , 4234.35897436 , 4253.33333333 , 4192.30769231 , 4197.43589744 , 4198.97435897 , 4155.38461538 , 4946.66666667 , 4087.69230769 , 4093.33333333 , 5.11056855972 , 0.0 , 0.0 , 0.0 , 0.0 , 0.0 , 

2016-10-05T18:16:56.995554 , 51.0 , 0.0 , 0.0 , 4196.92307692 , 4269.23076923 , 4283.07692308 , 4283.07692308 , 4191.79487179 , 4224.1025641 , 4242.05128205 , 4191.79487179 , 4196.92307692 , 4196.41025641 , 4162.56410256 , 4950.76923077 , 4109.23076923 , 4108.71794872 , 5.11897369806 , 0.0 , 0.0 , 0.0 , 0.0 , 0.0 , 

2016-10-05T18:16:56.995982 , 52.0 , 0.0 , 0.0 , 4191.28205128 , 4264.61538462 , 4291.79487179 , 4281.53846154 , 4180.51282051 , 4225.12820513 , 4244.61538462 , 4193.84615385 , 4197.94871795 , 4196.41025641 , 4151.28205128 , 4950.25641026 , 4075.38461538 , 4099.48717949 , 5.12733307306 , 0.0 , 0.0 , 0.0 , 0.0 , 0.0 , 

2016-10-05T18:16:56.996466 , 53.0 , 0.0 , 0.0 , 4186.15384615 , 4262.56410256 , 4278.97435897 , 4268.71794872 , 4180.51282051 , 4230.25641026 , 4240.0 , 4193.33333333 , 4195.38461538 , 4197.43589744 , 4156.41025641 , 4951.79487179 , 4076.92307692 , 4115.38461538 , 5.1357382114 , 0.0 , 0.0 , 0.0 , 0.0 , 0.0 , 

2016-10-05T18:16:56.996956 , 54.0 , 0.0 , 0.0 , 4196.92307692 , 4284.61538462 , 4276.92307692 , 4295.38461538 , 4205.12820513 , 4255.38461538 , 4265.12820513 , 4193.84615385 , 4192.82051282 , 4193.84615385 , 4155.38461538 , 4948.71794872 , 4066.66666667 , 4115.38461538 , 5.14412493015 , 0.0 , 0.0 , 0.0 , 0.0 , 0.0 , 

2016-10-05T18:16:56.997329 , 55.0 , 0.0 , 0.0 , 4200.51282051 , 4295.8974359 , 4272.30769231 , 4307.17948718 , 4205.64102564 , 4257.43589744 , 4277.94871795 , 4197.94871795 , 4193.33333333 , 4192.82051282 , 4162.56410256 , 4951.28205128 , 4060.0 , 4113.84615385 , 5.1524491489 , 0.0 , 0.0 , 0.0 , 0.0 , 0.0 , 

2016-10-05T18:16:56.997668 , 56.0 , 0.0 , 0.0 , 4191.79487179 , 4284.61538462 , 4256.92307692 , 4284.61538462 , 4194.87179487 , 4242.05128205 , 4263.58974359 , 4198.46153846 , 4193.33333333 , 4198.97435897 , 4177.43589744 , 4954.35897436 , 4086.66666667 , 4125.64102564 , 5.16085428724 , 0.0 , 0.0 , 0.0 , 0.0 , 0.0 , 

2016-10-05T18:16:56.998588 , 57.0 , 0.0 , 0.0 , 4191.79487179 , 4284.61538462 , 4269.74358974 , 4292.82051282 , 4201.53846154 , 4246.66666667 , 4269.23076923 , 4193.33333333 , 4193.84615385 , 4200.0 , 4176.92307692 , 4953.84615385 , 4092.82051282 , 4121.02564103 , 5.16922147474 , 0.0 , 0.0 , 0.0 , 0.0 , 0.0 , 

2016-10-05T18:16:56.999139 , 58.0 , 0.0 , 0.0 , 4201.02564103 , 4297.94871795 , 4286.15384615 , 4313.33333333 , 4204.1025641 , 4250.76923077 , 4277.94871795 , 4194.87179487 , 4195.8974359 , 4197.43589744 , 4178.97435897 , 4956.41025641 , 4063.58974359 , 4105.12820513 , 5.17758866224 , 0.0 , 0.0 , 0.0 , 0.0 , 0.0 , 

2016-10-05T18:16:56.999480 , 59.0 , 0.0 , 0.0 , 4209.23076923 , 4304.1025641 , 4287.69230769 , 4310.25641026 , 4200.51282051 , 4248.71794872 , 4268.20512821 , 4196.92307692 , 4194.87179487 , 4196.92307692 , 4175.38461538 , 4949.74358974 , 4052.82051282 , 4093.33333333 , 5.18591288099 , 0.0 , 0.0 , 0.0 , 0.0 , 0.0 , 

2016-10-05T18:16:56.999829 , 60.0 , 0.0 , 0.0 , 4194.87179487 , 4280.51282051 , 4272.30769231 , 4287.17948718 , 4187.69230769 , 4230.76923077 , 4246.15384615 , 4194.87179487 , 4195.38461538 , 4200.0 , 4181.53846154 , 4956.92307692 , 4077.43589744 , 4098.46153846 , 5.19431801933 , 0.0 , 0.0 , 0.0 , 0.0 , 0.0 , 

2016-10-05T18:16:57.000212 , 61.0 , 0.0 , 0.0 , 4204.1025641 , 4292.30769231 , 4298.97435897 , 4311.28205128 , 4195.8974359 , 4236.92307692 , 4259.48717949 , 4191.79487179 , 4197.43589744 , 4195.8974359 , 4155.8974359 , 4951.79487179 , 4045.64102564 , 4067.69230769 , 5.20270083183 , 0.0 , 0.0 , 0.0 , 0.0 , 0.0 , 

2016-10-05T18:16:57.000546 , 62.0 , 0.0 , 0.0 , 4192.82051282 , 4286.66666667 , 4288.20512821 , 4298.97435897 , 4182.56410256 , 4219.48717949 , 4240.51282051 , 4195.38461538 , 4196.92307692 , 4197.43589744 , 4160.51282051 , 4951.28205128 , 4061.53846154 , 4083.07692308 , 5.21108364433 , 0.0 , 0.0 , 0.0 , 0.0 , 0.0 , 

2016-10-05T18:16:57.000879 , 63.0 , 0.0 , 0.0 , 4192.30769231 , 4286.15384615 , 4288.71794872 , 4291.79487179 , 4184.1025641 , 4225.12820513 , 4242.05128205 , 4194.87179487 , 4194.87179487 , 4195.8974359 , 4150.76923077 , 4945.12820513 , 4071.79487179 , 4092.82051282 , 5.21941958183 , 0.0 , 0.0 , 0.0 , 0.0 , 0.0 , 

2016-10-05T18:16:57.001236 , 64.0 , 0.0 , 0.0 , 4187.69230769 , 4257.43589744 , 4282.56410256 , 4271.79487179 , 4178.46153846 , 4218.46153846 , 4234.87179487 , 4193.33333333 , 4196.92307692 , 4197.43589744 , 4154.35897436 , 4949.74358974 , 4086.15384615 , 4111.28205128 , 5.22780630058 , 0.0 , 0.0 , 0.0 , 0.0 , 0.0 , 

2016-10-05T18:16:57.001567 , 65.0 , 0.0 , 0.0 , 4200.51282051 , 4264.1025641 , 4300.51282051 , 4282.56410256 , 4187.17948718 , 4229.74358974 , 4247.17948718 , 4192.30769231 , 4196.41025641 , 4193.84615385 , 4133.84615385 , 4940.0 , 4063.07692308 , 4093.33333333 , 5.23612661308 , 0.0 , 0.0 , 0.0 , 0.0 , 0.0 , 

2016-10-05T18:16:57.001785 , 66.0 , 0.0 , 0.0 , 4186.15384615 , 4258.97435897 , 4271.28205128 , 4268.20512821 , 4181.53846154 , 4226.15384615 , 4239.48717949 , 4193.33333333 , 4196.92307692 , 4196.92307692 , 4151.79487179 , 4953.84615385 , 4089.23076923 , 4110.76923077 , 5.24453175142 , 0.0 , 0.0 , 0.0 , 0.0 , 0.0 , 

2016-10-05T18:16:57.002081 , 67.0 , 0.0 , 0.0 , 4198.46153846 , 4276.92307692 , 4263.07692308 , 4281.02564103 , 4206.15384615 , 4254.87179487 , 4264.61538462 , 4192.30769231 , 4196.92307692 , 4196.92307692 , 4151.28205128 , 4954.35897436 , 4084.1025641 , 4110.76923077 , 5.25293688976 , 0.0 , 0.0 , 0.0 , 0.0 , 0.0 , 

2016-10-05T18:16:57.002396 , 68.0 , 0.0 , 0.0 , 4195.8974359 , 4267.69230769 , 4256.41025641 , 4278.46153846 , 4204.1025641 , 4248.71794872 , 4262.05128205 , 4193.33333333 , 4195.8974359 , 4196.92307692 , 4165.64102564 , 4955.38461538 , 4080.51282051 , 4118.97435897 , 5.26130017101 , 0.0 , 0.0 , 0.0 , 0.0 , 0.0 , 

2016-10-05T18:16:57.002728 , 69.0 , 0.0 , 0.0 , 4203.07692308 , 4278.97435897 , 4276.92307692 , 4301.02564103 , 4202.56410256 , 4244.1025641 , 4256.92307692 , 4193.84615385 , 4195.38461538 , 4193.33333333 , 4167.69230769 , 4951.28205128 , 4060.51282051 , 4101.53846154 , 5.26966735851 , 0.0 , 0.0 , 0.0 , 0.0 , 0.0 , 

2016-10-05T18:16:57.003062 , 70.0 , 0.0 , 46.0 , 4193.84615385 , 4270.25641026 , 4268.71794872 , 4295.38461538 , 4196.41025641 , 4238.46153846 , 4244.61538462 , 4193.84615385 , 4197.94871795 , 4194.87179487 , 4187.17948718 , 4959.48717949 , 4076.92307692 , 4108.71794872 , 5.27803454601 , 0.0 , 0.0 , 0.0 , 0.0 , 0.0 , 

2016-10-05T18:16:57.003397 , 71.0 , 0.0 , 0.0 , 4198.97435897 , 4287.69230769 , 4280.51282051 , 4306.15384615 , 4207.17948718 , 4255.38461538 , 4269.23076923 , 4195.38461538 , 4197.43589744 , 4197.43589744 , 4176.92307692 , 4954.35897436 , 4056.41025641 , 4094.35897436 , 5.28640173351 , 0.0 , 0.0 , 0.0 , 0.0 , 0.0 , 

2016-10-05T18:16:57.003701 , 72.0 , 0.0 , 0.0 , 4210.25641026 , 4305.12820513 , 4296.92307692 , 4313.33333333 , 4211.79487179 , 4256.41025641 , 4277.43589744 , 4195.8974359 , 4193.33333333 , 4198.97435897 , 4166.66666667 , 4954.87179487 , 4051.79487179 , 4083.07692308 , 5.29476501476 , 0.0 , 0.0 , 0.0 , 0.0 , 0.0 , 

2016-10-05T18:16:57.003934 , 73.0 , 0.0 , 0.0 , 4214.87179487 , 4306.15384615 , 4294.87179487 , 4311.28205128 , 4208.20512821 , 4247.69230769 , 4264.1025641 , 4193.33333333 , 4194.87179487 , 4198.46153846 , 4161.02564103 , 4956.41025641 , 4073.33333333 , 4081.53846154 , 5.30314392101 , 0.0 , 0.0 , 0.0 , 0.0 , 0.0 , 

2016-10-05T18:16:57.004152 , 74.0 , 0.0 , 0.0 , 4202.05128205 , 4282.05128205 , 4288.20512821 , 4292.82051282 , 4192.82051282 , 4231.28205128 , 4248.71794872 , 4192.30769231 , 4195.8974359 , 4198.46153846 , 4161.02564103 , 4954.87179487 , 4084.61538462 , 4088.20512821 , 5.31152282726 , 0.0 , 0.0 , 0.0 , 0.0 , 0.0 , 

2016-10-05T18:16:57.004373 , 75.0 , 0.0 , 0.0 , 4191.28205128 , 4271.28205128 , 4291.79487179 , 4281.53846154 , 4183.07692308 , 4222.05128205 , 4246.15384615 , 4196.41025641 , 4193.33333333 , 4200.0 , 4165.12820513 , 4952.30769231 , 4081.53846154 , 4098.46153846 , 5.31985485851 , 0.0 , 0.0 , 0.0 , 0.0 , 0.0 , 

2016-10-05T18:16:57.004607 , 76.0 , 0.0 , 0.0 , 4191.79487179 , 4275.38461538 , 4298.97435897 , 4287.69230769 , 4184.61538462 , 4234.87179487 , 4249.74358974 , 4196.92307692 , 4192.82051282 , 4198.97435897 , 4153.84615385 , 4946.66666667 , 4085.12820513 , 4102.56410256 , 5.32818298351 , 0.0 , 0.0 , 0.0 , 0.0 , 0.0 , 

2016-10-05T18:16:57.004827 , 77.0 , 0.0 , 0.0 , 4190.25641026 , 4268.20512821 , 4287.69230769 , 4284.61538462 , 4188.20512821 , 4242.05128205 , 4244.61538462 , 4195.8974359 , 4197.43589744 , 4198.97435897 , 4147.17948718 , 4946.15384615 , 4083.58974359 , 4103.07692308 , 5.33653845226 , 0.0 , 0.0 , 0.0 , 0.0 , 0.0 , 

2016-10-05T18:16:57.005383 , 78.0 , 0.0 , 0.0 , 4198.46153846 , 4283.07692308 , 4290.76923077 , 4288.71794872 , 4204.61538462 , 4246.15384615 , 4251.28205128 , 4194.87179487 , 4195.8974359 , 4194.35897436 , 4138.46153846 , 4941.53846154 , 4058.97435897 , 4090.25641026 , 5.34489392101 , 0.0 , 0.0 , 0.0 , 0.0 , 0.0 , 

2016-10-05T18:16:57.005751 , 79.0 , 0.0 , 0.0 , 4182.05128205 , 4275.38461538 , 4267.69230769 , 4269.74358974 , 4191.28205128 , 4234.35897436 , 4246.66666667 , 4194.87179487 , 4192.30769231 , 4194.87179487 , 4159.48717949 , 4949.74358974 , 4083.07692308 , 4115.8974359 , 5.35325720226 , 0.0 , 0.0 , 0.0 , 0.0 , 0.0 , 

2016-10-05T18:16:57.006690 , 80.0 , 0.0 , 0.0 , 4189.74358974 , 4282.05128205 , 4269.23076923 , 4289.23076923 , 4198.97435897 , 4256.41025641 , 4271.28205128 , 4193.84615385 , 4194.35897436 , 4194.35897436 , 4154.35897436 , 4944.1025641 , 4073.84615385 , 4116.92307692 , 5.36162048351 , 0.0 , 0.0 , 0.0 , 0.0 , 0.0 , 

2016-10-05T18:16:57.006960 , 81.0 , 0.0 , 0.0 , 4201.53846154 , 4283.58974359 , 4268.20512821 , 4301.02564103 , 4206.15384615 , 4253.33333333 , 4270.76923077 , 4196.92307692 , 4197.43589744 , 4197.43589744 , 4166.66666667 , 4949.74358974 , 4074.35897436 , 4122.05128205 , 5.36994470226 , 0.0 , 0.0 , 0.0 , 0.0 , 0.0 , 

2016-10-05T18:16:57.007392 , 82.0 , 0.0 , 0.0 , 4213.84615385 , 4300.51282051 , 4281.02564103 , 4313.33333333 , 4211.28205128 , 4252.30769231 , 4279.48717949 , 4195.8974359 , 4195.38461538 , 4195.38461538 , 4172.30769231 , 4952.30769231 , 4074.87179487 , 4112.30769231 , 5.37826892101 , 0.0 , 0.0 , 0.0 , 0.0 , 0.0 , 

2016-10-05T18:16:57.007780 , 83.0 , 0.0 , 0.0 , 4188.20512821 , 4269.74358974 , 4259.48717949 , 4284.1025641 , 4183.58974359 , 4230.76923077 , 4261.02564103 , 4194.35897436 , 4195.8974359 , 4200.0 , 4203.07692308 , 4964.1025641 , 4101.53846154 , 4132.30769231 , 5.38664782726 , 0.0 , 0.0 , 0.0 , 0.0 , 0.0 , 

2016-10-05T18:16:57.008352 , 84.0 , 0.0 , 0.0 , 4201.02564103 , 4283.58974359 , 4281.02564103 , 4303.07692308 , 4191.28205128 , 4240.51282051 , 4262.56410256 , 4194.87179487 , 4197.43589744 , 4200.0 , 4184.1025641 , 4951.79487179 , 4060.0 , 4104.61538462 , 5.39494079601 , 0.0 , 0.0 , 0.0 , 0.0 , 0.0 , 

2016-10-05T18:16:57.009497 , 85.0 , 0.0 , 0.0 , 4206.66666667 , 4293.84615385 , 4282.56410256 , 4306.66666667 , 4191.28205128 , 4234.87179487 , 4246.66666667 , 4195.38461538 , 4196.92307692 , 4201.53846154 , 4173.84615385 , 4953.33333333 , 4057.94871795 , 4093.33333333 , 5.40323376476 , 0.0 , 0.0 , 0.0 , 0.0 , 0.0 , 

2016-10-05T18:16:57.009890 , 86.0 , 0.0 , 0.0 , 4212.30769231 , 4305.12820513 , 4288.71794872 , 4305.12820513 , 4199.48717949 , 4245.64102564 , 4261.02564103 , 4191.79487179 , 4196.41025641 , 4198.46153846 , 4154.35897436 , 4950.25641026 , 4058.97435897 , 4077.94871795 , 5.41158923351 , 0.0 , 0.0 , 0.0 , 0.0 , 0.0 , 

2016-10-05T18:16:57.010325 , 87.0 , 0.0 , 0.0 , 4197.43589744 , 4285.12820513 , 4278.46153846 , 4277.43589744 , 4193.33333333 , 4225.12820513 , 4244.61538462 , 4191.79487179 , 4198.97435897 , 4198.97435897 , 4157.94871795 , 4956.41025641 , 4083.58974359 , 4095.8974359 , 5.41988610851 , 0.0 , 0.0 , 0.0 , 0.0 , 0.0 , 

2016-10-05T18:16:57.010672 , 88.0 , 0.0 , 0.0 , 4201.02564103 , 4286.15384615 , 4291.28205128 , 4286.66666667 , 4197.94871795 , 4221.53846154 , 4238.97435897 , 4194.87179487 , 4197.43589744 , 4197.94871795 , 4134.87179487 , 4949.23076923 , 4080.0 , 4087.69230769 , 5.42821813976 , 0.0 , 0.0 , 0.0 , 0.0 , 0.0 , 

2016-10-05T18:16:57.011235 , 89.0 , 0.0 , 0.0 , 4183.58974359 , 4264.61538462 , 4275.8974359 , 4273.84615385 , 4180.0 , 4215.38461538 , 4229.23076923 , 4195.38461538 , 4195.8974359 , 4200.51282051 , 4139.48717949 , 4945.12820513 , 4095.8974359 , 4097.94871795 , 5.43652673351 , 0.0 , 0.0 , 0.0 , 0.0 , 0.0 , 

2016-10-05T18:16:57.011906 , 90.0 , 0.0 , 0.0 , 4182.56410256 , 4274.35897436 , 4281.02564103 , 4274.35897436 , 4183.58974359 , 4230.25641026 , 4244.61538462 , 4194.87179487 , 4197.43589744 , 4200.0 , 4149.23076923 , 4941.02564103 , 4077.43589744 , 4104.61538462 , 5.44483532726 , 0.0 , 0.0 , 0.0 , 0.0 , 0.0 , 

2016-10-05T18:16:57.012209 , 91.0 , 0.0 , 0.0 , 4192.82051282 , 4283.07692308 , 4282.56410256 , 4277.94871795 , 4195.38461538 , 4240.51282051 , 4254.35897436 , 4195.8974359 , 4197.94871795 , 4195.8974359 , 4164.1025641 , 4952.30769231 , 4083.58974359 , 4122.05128205 , 5.45314392101 , 0.0 , 0.0 , 0.0 , 0.0 , 0.0 , 

2016-10-05T18:16:57.012428 , 92.0 , 0.0 , 0.0 , 4201.02564103 , 4276.41025641 , 4265.12820513 , 4285.64102564 , 4197.43589744 , 4242.05128205 , 4259.48717949 , 4196.41025641 , 4196.92307692 , 4196.92307692 , 4169.23076923 , 4958.97435897 , 4092.82051282 , 4127.69230769 , 5.46154905935 , 0.0 , 0.0 , 0.0 , 0.0 , 0.0 , 

2016-10-05T18:16:57.012648 , 93.0 , 0.0 , 0.0 , 4196.41025641 , 4270.25641026 , 4261.53846154 , 4287.17948718 , 4192.82051282 , 4241.53846154 , 4263.58974359 , 4194.35897436 , 4196.92307692 , 4198.97435897 , 4168.20512821 , 4952.30769231 , 4068.71794872 , 4117.94871795 , 5.46990062185 , 0.0 , 0.0 , 0.0 , 0.0 , 0.0 , 

2016-10-05T18:16:57.012864 , 94.0 , 0.0 , 0.0 , 4190.25641026 , 4276.41025641 , 4268.20512821 , 4286.15384615 , 4196.41025641 , 4248.20512821 , 4267.69230769 , 4194.35897436 , 4196.92307692 , 4197.94871795 , 4181.53846154 , 4954.35897436 , 4065.64102564 , 4117.94871795 , 5.47825218435 , 0.0 , 0.0 , 0.0 , 0.0 , 0.0 , 

2016-10-05T18:16:57.013094 , 95.0 , 0.0 , 0.0 , 4198.46153846 , 4286.15384615 , 4273.84615385 , 4292.82051282 , 4204.1025641 , 4258.46153846 , 4271.79487179 , 4192.82051282 , 4197.43589744 , 4195.38461538 , 4183.58974359 , 4955.8974359 , 4082.56410256 , 4111.79487179 , 5.48660374685 , 0.0 , 0.0 , 0.0 , 0.0 , 0.0 , 

2016-10-05T18:16:57.013320 , 96.0 , 0.0 , 0.0 , 4193.84615385 , 4276.41025641 , 4266.15384615 , 4287.17948718 , 4188.20512821 , 4243.58974359 , 4261.02564103 , 4192.82051282 , 4197.94871795 , 4198.46153846 , 4181.02564103 , 4956.92307692 , 4077.94871795 , 4106.66666667 , 5.49500888519 , 0.0 , 0.0 , 0.0 , 0.0 , 0.0 , 

2016-10-05T18:16:57.013603 , 97.0 , 0.0 , 0.0 , 4202.05128205 , 4291.79487179 , 4286.15384615 , 4306.15384615 , 4194.35897436 , 4243.58974359 , 4260.51282051 , 4193.84615385 , 4194.87179487 , 4195.8974359 , 4163.58974359 , 4949.23076923 , 4046.66666667 , 4084.61538462 , 5.50334872894 , 0.0 , 0.0 , 0.0 , 0.0 , 0.0 , 

2016-10-05T18:16:57.013819 , 98.0 , 0.0 , 0.0 , 4205.64102564 , 4300.51282051 , 4287.17948718 , 4314.35897436 , 4195.8974359 , 4233.84615385 , 4243.07692308 , 4194.87179487 , 4195.38461538 , 4197.94871795 , 4169.74358974 , 4954.35897436 , 4072.82051282 , 4089.74358974 , 5.51168857269 , 0.0 , 0.0 , 0.0 , 0.0 , 0.0 , 

2016-10-05T18:16:57.014039 , 99.0 , 0.0 , 0.0 , 4217.43589744 , 4313.33333333 , 4304.61538462 , 4324.1025641 , 4201.02564103 , 4240.51282051 , 4257.43589744 , 4191.79487179 , 4196.92307692 , 4198.97435897 , 4151.28205128 , 4945.64102564 , 4071.79487179 , 4079.48717949 , 5.52004013519 , 0.0 , 0.0 , 0.0 , 0.0 , 0.0 , 

2016-10-05T18:16:57.014275 , 100.0 , 0.0 , 0.0 , 4193.33333333 , 4278.97435897 , 4288.71794872 , 4285.12820513 , 4182.56410256 , 4223.07692308 , 4257.43589744 , 4193.33333333 , 4195.8974359 , 4198.46153846 , 4160.51282051 , 4950.25641026 , 4087.69230769 , 4103.07692308 , 5.52839169769 , 0.0 , 0.0 , 0.0 , 0.0 , 0.0 , 

2016-10-05T18:16:57.014517 , 101.0 , 0.0 , 0.0 , 4191.79487179 , 4273.33333333 , 4291.79487179 , 4282.56410256 , 4189.23076923 , 4235.8974359 , 4266.66666667 , 4194.87179487 , 4194.35897436 , 4193.84615385 , 4156.41025641 , 4947.17948718 , 4076.92307692 , 4104.61538462 , 5.53673935394 , 0.0 , 0.0 , 0.0 , 0.0 , 0.0 , 

2016-10-05T18:16:57.014836 , 102.0 , 0.0 , 0.0 , 4190.25641026 , 4264.61538462 , 4282.05128205 , 4281.02564103 , 4187.69230769 , 4234.87179487 , 4246.15384615 , 4194.35897436 , 4197.94871795 , 4197.94871795 , 4167.69230769 , 4953.33333333 , 4082.56410256 , 4123.07692308 , 5.54508701019 , 0.0 , 0.0 , 0.0 , 0.0 , 0.0 , 

2016-10-05T18:16:57.015342 , 103.0 , 0.0 , 0.0 , 4197.43589744 , 4280.0 , 4294.87179487 , 4294.35897436 , 4196.92307692 , 4248.20512821 , 4257.94871795 , 4192.82051282 , 4198.46153846 , 4195.8974359 , 4148.20512821 , 4943.58974359 , 4065.12820513 , 4108.71794872 , 5.55343466644 , 0.0 , 0.0 , 0.0 , 0.0 , 0.0 , 

2016-10-05T18:16:57.015955 , 104.0 , 0.0 , 0.0 , 4173.84615385 , 4261.02564103 , 4265.64102564 , 4268.20512821 , 4183.07692308 , 4236.92307692 , 4254.87179487 , 4195.38461538 , 4196.92307692 , 4195.38461538 , 4161.02564103 , 4950.76923077 , 4093.33333333 , 4121.02564103 , 5.56175497894 , 0.0 , 0.0 , 0.0 , 0.0 , 0.0 , 

2016-10-05T18:16:57.019930 , 105.0 , 0.0 , 0.0 , 4183.07692308 , 4270.25641026 , 4257.43589744 , 4275.8974359 , 4192.82051282 , 4250.76923077 , 4268.71794872 , 4194.35897436 , 4197.43589744 , 4195.38461538 , 4164.1025641 , 4951.28205128 , 4087.17948718 , 4119.48717949 , 5.57007529144 , 0.0 , 0.0 , 0.0 , 0.0 , 0.0 , 

2016-10-05T18:16:57.021090 , 106.0 , 0.0 , 0.0 , 4192.30769231 , 4275.38461538 , 4252.30769231 , 4275.8974359 , 4203.07692308 , 4251.79487179 , 4265.64102564 , 4192.30769231 , 4195.8974359 , 4195.38461538 , 4181.02564103 , 4957.43589744 , 4087.69230769 , 4131.28205128 , 5.57839169769 , 0.0 , 0.0 , 0.0 , 0.0 , 0.0 , 

2016-10-05T18:16:57.033496 , 107.0 , 0.0 , 0.0 , 4209.74358974 , 4298.46153846 , 4275.8974359 , 4301.02564103 , 4215.8974359 , 4265.12820513 , 4279.48717949 , 4191.28205128 , 4192.30769231 , 4193.33333333 , 4170.25641026 , 4949.23076923 , 4063.58974359 , 4103.58974359 , 5.58679404144 , 0.0 , 0.0 , 0.0 , 0.0 , 0.0 , 

2016-10-05T18:16:57.034028 , 108.0 , 0.0 , 0.0 , 4201.53846154 , 4290.25641026 , 4274.87179487 , 4300.0 , 4201.02564103 , 4252.30769231 , 4265.64102564 , 4192.82051282 , 4195.38461538 , 4199.48717949 , 4175.38461538 , 4952.30769231 , 4075.8974359 , 4101.02564103 , 5.59514951019 , 0.0 , 0.0 , 0.0 , 0.0 , 0.0 , 

2016-10-05T18:16:57.035058 , 109.0 , 0.0 , 0.0 , 4199.48717949 , 4287.17948718 , 4276.92307692 , 4300.51282051 , 4194.35897436 , 4233.33333333 , 4248.71794872 , 4193.33333333 , 4196.92307692 , 4201.02564103 , 4178.97435897 , 4955.38461538 , 4073.84615385 , 4101.53846154 , 5.60350497894 , 0.0 , 0.0 , 0.0 , 0.0 , 0.0 , 

2016-10-05T18:16:57.035690 , 110.0 , 0.0 , 0.0 , 4204.1025641 , 4288.71794872 , 4289.23076923 , 4301.53846154 , 4189.23076923 , 4228.71794872 , 4243.58974359 , 4191.79487179 , 4195.38461538 , 4196.92307692 , 4178.46153846 , 4955.38461538 , 4058.97435897 , 4096.41025641 , 5.61185654144 , 0.0 , 0.0 , 0.0 , 0.0 , 0.0 , 

2016-10-05T18:16:57.036095 , 111.0 , 0.0 , 0.0 , 4204.1025641 , 4293.33333333 , 4290.25641026 , 4297.43589744 , 4189.74358974 , 4240.0 , 4255.8974359 , 4193.84615385 , 4195.38461538 , 4197.94871795 , 4170.25641026 , 4949.74358974 , 4064.1025641 , 4092.30769231 , 5.62020810394 , 0.0 , 0.0 , 0.0 , 0.0 , 0.0 , 

2016-10-05T18:16:57.036638 , 112.0 , 0.0 , 0.0 , 4191.28205128 , 4284.1025641 , 4283.07692308 , 4283.58974359 , 4189.74358974 , 4236.41025641 , 4261.02564103 , 4194.35897436 , 4195.8974359 , 4198.46153846 , 4159.48717949 , 4945.64102564 , 4082.56410256 , 4094.35897436 , 5.62855966644 , 0.0 , 0.0 , 0.0 , 0.0 , 0.0 , 

2016-10-05T18:16:57.037327 , 113.0 , 0.0 , 0.0 , 4186.66666667 , 4262.56410256 , 4280.51282051 , 4269.74358974 , 4180.51282051 , 4218.46153846 , 4247.69230769 , 4193.84615385 , 4194.87179487 , 4198.46153846 , 4160.51282051 , 4948.20512821 , 4080.51282051 , 4101.53846154 , 5.63692294769 , 0.0 , 0.0 , 0.0 , 0.0 , 0.0 , 

2016-10-05T18:16:57.038135 , 114.0 , 0.0 , 0.0 , 4200.51282051 , 4263.07692308 , 4294.87179487 , 4281.53846154 , 4180.51282051 , 4224.1025641 , 4245.12820513 , 4192.30769231 , 4194.87179487 , 4196.41025641 , 4149.23076923 , 4945.64102564 , 4061.53846154 , 4101.02564103 , 5.64528622894 , 0.0 , 0.0 , 0.0 , 0.0 , 0.0 , 

2016-10-05T18:16:57.042718 , 115.0 , 0.0 , 0.0 , 4185.12820513 , 4262.05128205 , 4282.56410256 , 4279.48717949 , 4178.97435897 , 4227.69230769 , 4243.07692308 , 4194.35897436 , 4196.41025641 , 4197.94871795 , 4147.69230769 , 4950.25641026 , 4075.8974359 , 4114.87179487 , 5.65366513519 , 0.0 , 0.0 , 0.0 , 0.0 , 0.0 , 

2016-10-05T18:16:57.043194 , 116.0 , 0.0 , 0.0 , 4184.61538462 , 4272.82051282 , 4285.12820513 , 4284.1025641 , 4188.71794872 , 4238.46153846 , 4254.35897436 , 4192.82051282 , 4195.38461538 , 4194.35897436 , 4142.05128205 , 4944.61538462 , 4072.82051282 , 4107.17948718 , 5.66200497894 , 0.0 , 0.0 , 0.0 , 0.0 , 0.0 , 

2016-10-05T18:16:57.044040 , 117.0 , 0.0 , 0.0 , 4188.20512821 , 4260.51282051 , 4265.12820513 , 4267.69230769 , 4186.15384615 , 4235.8974359 , 4252.30769231 , 4190.25641026 , 4196.41025641 , 4196.41025641 , 4171.28205128 , 4951.79487179 , 4094.87179487 , 4128.20512821 , 5.67036826019 , 0.0 , 0.0 , 0.0 , 0.0 , 0.0 , 

2016-10-05T18:16:57.044924 , 118.0 , 0.0 , 0.0 , 4203.07692308 , 4278.97435897 , 4272.30769231 , 4289.23076923 , 4205.64102564 , 4262.56410256 , 4285.12820513 , 4190.25641026 , 4194.87179487 , 4193.84615385 , 4169.74358974 , 4950.25641026 , 4081.53846154 , 4120.51282051 , 5.67873154144 , 0.0 , 0.0 , 0.0 , 0.0 , 0.0 , 

2016-10-05T18:16:57.045441 , 119.0 , 0.0 , 0.0 , 4189.74358974 , 4280.0 , 4270.76923077 , 4297.43589744 , 4196.92307692 , 4248.20512821 , 4276.41025641 , 4195.8974359 , 4193.33333333 , 4197.43589744 , 4181.02564103 , 4958.97435897 , 4078.46153846 , 4120.0 , 5.68709482269 , 0.0 , 0.0 , 0.0 , 0.0 , 0.0 , 

2016-10-05T18:16:57.046429 , 120.0 , 0.0 , 0.0 , 4198.97435897 , 4290.25641026 , 4289.23076923 , 4312.82051282 , 4195.8974359 , 4238.46153846 , 4261.02564103 , 4196.92307692 , 4193.33333333 , 4202.05128205 , 4172.82051282 , 4955.8974359 , 4061.53846154 , 4099.48717949 , 5.69545810394 , 0.0 , 0.0 , 0.0 , 0.0 , 0.0 , 

2016-10-05T18:16:57.047100 , 121.0 , 0.0 , 0.0 , 4198.97435897 , 4272.82051282 , 4276.92307692 , 4297.43589744 , 4186.66666667 , 4225.12820513 , 4242.05128205 , 4194.35897436 , 4197.94871795 , 4203.58974359 , 4183.07692308 , 4961.02564103 , 4086.15384615 , 4105.12820513 , 5.70368466644 , 0.0 , 0.0 , 0.0 , 0.0 , 0.0 , 

2016-10-05T18:16:57.047853 , 122.0 , 0.0 , 0.0 , 4214.35897436 , 4298.97435897 , 4295.38461538 , 4315.38461538 , 4204.1025641 , 4250.76923077 , 4268.71794872 , 4192.82051282 , 4197.43589744 , 4196.41025641 , 4161.53846154 , 4947.69230769 , 4059.48717949 , 4078.46153846 , 5.71195029144 , 0.0 , 0.0 , 0.0 , 0.0 , 0.0 , 

2016-10-05T18:16:57.048227 , 123.0 , 0.0 , 0.0 , 4201.53846154 , 4295.8974359 , 4288.20512821 , 4301.02564103 , 4198.97435897 , 4242.05128205 , 4251.79487179 , 4195.8974359 , 4191.79487179 , 4201.02564103 , 4165.64102564 , 4951.79487179 , 4060.51282051 , 4087.17948718 , 5.72027841644 , 0.0 , 0.0 , 0.0 , 0.0 , 0.0 , 

2016-10-05T18:16:57.048717 , 124.0 , 0.0 , 0.0 , 4202.05128205 , 4296.41025641 , 4289.23076923 , 4303.07692308 , 4203.07692308 , 4241.02564103 , 4249.74358974 , 4195.38461538 , 4192.30769231 , 4203.58974359 , 4153.33333333 , 4949.74358974 , 4064.61538462 , 4087.69230769 , 5.72860654144 , 0.0 , 0.0 , 0.0 , 0.0 , 0.0 , 

2016-10-05T18:16:57.049735 , 125.0 , 0.0 , 0.0 , 4190.76923077 , 4272.82051282 , 4277.43589744 , 4286.15384615 , 4188.71794872 , 4227.17948718 , 4243.58974359 , 4195.38461538 , 4197.94871795 , 4201.02564103 , 4154.35897436 , 4949.74358974 , 4087.69230769 , 4102.56410256 , 5.73691513519 , 0.0 , 0.0 , 0.0 , 0.0 , 0.0 , 

2016-10-05T18:16:57.050361 , 126.0 , 0.0 , 0.0 , 4196.92307692 , 4274.35897436 , 4289.23076923 , 4285.64102564 , 4194.35897436 , 4235.38461538 , 4250.76923077 , 4196.41025641 , 4195.8974359 , 4196.41025641 , 4140.51282051 , 4939.48717949 , 4073.33333333 , 4089.23076923 , 5.74528232269 , 0.0 , 0.0 , 0.0 , 0.0 , 0.0 , 

2016-10-05T18:16:57.050943 , 127.0 , 0.0 , 0.0 , 4197.43589744 , 4271.28205128 , 4287.17948718 , 4281.02564103 , 4201.02564103 , 4241.02564103 , 4250.25641026 , 4194.87179487 , 4194.35897436 , 4197.43589744 , 4147.17948718 , 4946.66666667 , 4085.12820513 , 4098.46153846 , 5.75359091644 , 0.0 , 0.0 , 0.0 , 0.0 , 0.0 , 

2016-10-05T18:16:57.051943 , 128.0 , 0.0 , 0.0 , 4196.41025641 , 4278.46153846 , 4284.1025641 , 4293.33333333 , 4201.53846154 , 4248.20512821 , 4258.97435897 , 4193.84615385 , 4196.41025641 , 4197.43589744 , 4154.87179487 , 4955.38461538 , 4075.38461538 , 4115.8974359 , 5.76196982269 , 0.0 , 0.0 , 0.0 , 0.0 , 0.0 , 

2016-10-05T18:16:57.052566 , 0.0 , 0.0 , 0.0 , 4189.74358974 , 4270.25641026 , 4275.38461538 , 4287.69230769 , 4196.92307692 , 4249.23076923 , 4261.53846154 , 4194.87179487 , 4194.35897436 , 4195.38461538 , 4161.02564103 , 4952.82051282 , 4059.48717949 , 4126.15384615 , 5.77026669769 , 0.0 , 0.0 , 0.0 , 0.0 , 0.0 , 

2016-10-05T18:16:58.053420 , 8.0 , 0.0 , 0.0 , 4191.28205128 , 4274.35897436 , 4298.46153846 , 4287.17948718 , 4190.25641026 , 4236.92307692 , 4253.84615385 , 4195.8974359 , 4195.8974359 , 4198.97435897 , 4146.15384615 , 4943.07692308 , 4080.51282051 , 4082.05128205 , 5.83711213062 , 0.0 , 0.0 , 0.0 , 0.0 , 0.0 , 

2016-10-05T18:16:58.053667 , 9.0 , 0.0 , 0.0 , 4185.64102564 , 4262.56410256 , 4285.12820513 , 4276.92307692 , 4188.20512821 , 4228.20512821 , 4244.61538462 , 4197.94871795 , 4194.35897436 , 4196.41025641 , 4158.97435897 , 4953.33333333 , 4087.69230769 , 4104.1025641 , 5.84551726896 , 0.0 , 0.0 , 0.0 , 0.0 , 0.0 , 

2016-10-05T18:16:58.053891 , 10.0 , 0.0 , 0.0 , 4201.02564103 , 4280.51282051 , 4289.23076923 , 4289.74358974 , 4199.48717949 , 4236.92307692 , 4249.23076923 , 4196.41025641 , 4194.87179487 , 4195.38461538 , 4158.97435897 , 4950.76923077 , 4066.15384615 , 4107.69230769 , 5.85389226896 , 0.0 , 0.0 , 0.0 , 0.0 , 0.0 , 

2016-10-05T18:16:58.054147 , 11.0 , 0.0 , 0.0 , 4190.25641026 , 4263.07692308 , 4272.82051282 , 4273.84615385 , 4187.17948718 , 4223.58974359 , 4236.41025641 , 4196.92307692 , 4195.8974359 , 4199.48717949 , 4160.51282051 , 4951.28205128 , 4083.07692308 , 4121.53846154 , 5.86222430021 , 0.0 , 0.0 , 0.0 , 0.0 , 0.0 , 

2016-10-05T18:16:58.054362 , 12.0 , 0.0 , 0.0 , 4202.05128205 , 4272.30769231 , 4283.58974359 , 4289.74358974 , 4202.05128205 , 4244.61538462 , 4265.12820513 , 4194.87179487 , 4194.87179487 , 4194.87179487 , 4137.94871795 , 4939.48717949 , 4068.71794872 , 4108.20512821 , 5.86962273771 , 0.0 , 0.0 , 0.0 , 0.0 , 0.0 , 

2016-10-05T18:16:58.054570 , 13.0 , 0.0 , 0.0 , 4194.35897436 , 4266.66666667 , 4266.15384615 , 4283.07692308 , 4196.41025641 , 4243.07692308 , 4262.05128205 , 4194.35897436 , 4196.92307692 , 4194.35897436 , 4161.02564103 , 4952.30769231 , 4086.66666667 , 4127.17948718 , 5.87798601896 , 0.0 , 0.0 , 0.0 , 0.0 , 0.0 , 

2016-10-05T18:16:58.054769 , 14.0 , 0.0 , 0.0 , 4196.92307692 , 4276.92307692 , 4269.23076923 , 4296.92307692 , 4196.92307692 , 4248.20512821 , 4262.56410256 , 4195.38461538 , 4198.46153846 , 4195.38461538 , 4167.69230769 , 4953.84615385 , 4082.05128205 , 4122.05128205 , 5.8863911573 , 0.0 , 0.0 , 0.0 , 0.0 , 0.0 , 

2016-10-05T18:16:58.055008 , 15.0 , 0.0 , 0.0 , 4197.43589744 , 4268.71794872 , 4266.15384615 , 4290.76923077 , 4199.48717949 , 4244.1025641 , 4263.07692308 , 4194.35897436 , 4197.43589744 , 4198.97435897 , 4181.53846154 , 4954.87179487 , 4088.71794872 , 4128.20512821 , 5.89479629564 , 0.0 , 0.0 , 0.0 , 0.0 , 0.0 , 

2016-10-05T18:16:58.055221 , 16.0 , 0.0 , 0.0 , 4210.25641026 , 4279.48717949 , 4275.8974359 , 4298.46153846 , 4209.74358974 , 4248.71794872 , 4274.87179487 , 4191.28205128 , 4195.8974359 , 4201.02564103 , 4184.61538462 , 4955.38461538 , 4070.76923077 , 4115.38461538 , 5.90320143398 , 0.0 , 0.0 , 0.0 , 0.0 , 0.0 , 

2016-10-05T18:16:58.055420 , 17.0 , 0.0 , 0.0 , 4208.20512821 , 4288.20512821 , 4281.53846154 , 4308.20512821 , 4198.46153846 , 4235.38461538 , 4256.41025641 , 4193.84615385 , 4196.92307692 , 4200.51282051 , 4185.12820513 , 4960.0 , 4074.35897436 , 4105.12820513 , 5.91060657232 , 0.0 , 0.0 , 0.0 , 0.0 , 0.0 , 

2016-10-05T18:16:58.055630 , 18.0 , 0.0 , 0.0 , 4207.17948718 , 4297.94871795 , 4294.35897436 , 4320.51282051 , 4193.84615385 , 4232.30769231 , 4249.74358974 , 4197.94871795 , 4197.94871795 , 4197.43589744 , 4168.71794872 , 4953.33333333 , 4067.17948718 , 4086.15384615 , 5.91800500982 , 0.0 , 0.0 , 0.0 , 0.0 , 0.0 , 

2016-10-05T18:16:58.056139 , 19.0 , 0.0 , 0.0 , 4202.56410256 , 4284.61538462 , 4295.8974359 , 4299.48717949 , 4192.82051282 , 4227.17948718 , 4246.15384615 , 4197.94871795 , 4197.43589744 , 4196.92307692 , 4165.64102564 , 4950.76923077 , 4056.92307692 , 4080.0 , 5.92540344732 , 0.0 , 0.0 , 0.0 , 0.0 , 0.0 , 

2016-10-05T18:16:58.056487 , 20.0 , 0.0 , 0.0 , 4201.53846154 , 4277.43589744 , 4289.74358974 , 4281.53846154 , 4195.38461538 , 4226.15384615 , 4240.51282051 , 4196.41025641 , 4196.41025641 , 4200.51282051 , 4166.15384615 , 4951.79487179 , 4072.82051282 , 4086.66666667 , 5.93273547857 , 0.0 , 0.0 , 0.0 , 0.0 , 0.0 , 

2016-10-05T18:16:58.056835 , 21.0 , 0.0 , 0.0 , 4198.46153846 , 4287.17948718 , 4297.43589744 , 4293.33333333 , 4195.8974359 , 4236.41025641 , 4250.76923077 , 4193.84615385 , 4195.8974359 , 4198.46153846 , 4148.71794872 , 4945.64102564 , 4086.66666667 , 4092.82051282 , 5.94012610357 , 0.0 , 0.0 , 0.0 , 0.0 , 0.0 , 

2016-10-05T18:16:58.057179 , 22.0 , 0.0 , 0.0 , 4186.66666667 , 4270.76923077 , 4289.23076923 , 4284.1025641 , 4180.0 , 4220.51282051 , 4242.05128205 , 4193.33333333 , 4196.41025641 , 4197.43589744 , 4148.71794872 , 4950.25641026 , 4086.15384615 , 4108.71794872 , 5.94734875982 , 0.0 , 0.0 , 0.0 , 0.0 , 0.0 , 

2016-10-05T18:16:58.057497 , 23.0 , 0.0 , 0.0 , 4196.41025641 , 4266.66666667 , 4290.25641026 , 4282.56410256 , 4190.76923077 , 4227.17948718 , 4246.15384615 , 4194.35897436 , 4193.84615385 , 4194.87179487 , 4140.0 , 4945.12820513 , 4073.33333333 , 4097.43589744 , 5.95475389816 , 0.0 , 0.0 , 0.0 , 0.0 , 0.0 , 

2016-10-05T18:16:58.057757 , 24.0 , 0.0 , 0.0 , 4192.82051282 , 4267.17948718 , 4276.92307692 , 4278.97435897 , 4197.43589744 , 4243.58974359 , 4249.74358974 , 4193.33333333 , 4194.35897436 , 4196.41025641 , 4153.33333333 , 4947.17948718 , 4093.84615385 , 4111.28205128 , 5.9621590365 , 0.0 , 0.0 , 0.0 , 0.0 , 0.0 , 

2016-10-05T18:16:58.057969 , 25.0 , 0.0 , 0.0 , 4200.0 , 4291.79487179 , 4289.23076923 , 4306.66666667 , 4203.58974359 , 4261.53846154 , 4265.64102564 , 4190.76923077 , 4196.92307692 , 4195.38461538 , 4153.33333333 , 4944.61538462 , 4073.33333333 , 4118.46153846 , 5.97056417484 , 0.0 , 0.0 , 0.0 , 0.0 , 0.0 , 

2016-10-05T18:16:58.058182 , 26.0 , 0.0 , 0.0 , 4195.38461538 , 4278.97435897 , 4272.82051282 , 4300.51282051 , 4187.69230769 , 4236.92307692 , 4251.79487179 , 4194.35897436 , 4196.41025641 , 4197.43589744 , 4175.8974359 , 4956.41025641 , 4076.41025641 , 4138.46153846 , 5.97896931318 , 0.0 , 0.0 , 0.0 , 0.0 , 0.0 , 

2016-10-05T18:16:58.058385 , 27.0 , 0.0 , 0.0 , 4204.61538462 , 4280.0 , 4276.41025641 , 4304.1025641 , 4197.94871795 , 4246.66666667 , 4263.58974359 , 4195.38461538 , 4194.35897436 , 4194.35897436 , 4170.76923077 , 4953.84615385 , 4070.25641026 , 4111.79487179 , 5.98737445152 , 0.0 , 0.0 , 0.0 , 0.0 , 0.0 , 

2016-10-05T18:16:58.059259 , 28.0 , 0.0 , 0.0 , 4196.41025641 , 4269.23076923 , 4270.25641026 , 4292.82051282 , 4195.38461538 , 4240.51282051 , 4254.35897436 , 4194.35897436 , 4196.92307692 , 4197.94871795 , 4187.69230769 , 4960.51282051 , 4090.25641026 , 4112.30769231 , 5.99477958986 , 0.0 , 0.0 , 0.0 , 0.0 , 0.0 , 

2016-10-05T18:16:58.064430 , 29.0 , 0.0 , 0.0 , 4212.30769231 , 4298.97435897 , 4292.82051282 , 4321.53846154 , 4204.61538462 , 4245.12820513 , 4258.46153846 , 4194.35897436 , 4196.41025641 , 4197.43589744 , 4180.0 , 4956.41025641 , 4068.71794872 , 4101.02564103 , 6.0021847282 , 0.0 , 0.0 , 0.0 , 0.0 , 0.0 , 

2016-10-05T18:16:58.064842 , 30.0 , 0.0 , 0.0 , 4200.0 , 4293.33333333 , 4283.07692308 , 4313.33333333 , 4188.71794872 , 4230.76923077 , 4240.51282051 , 4194.87179487 , 4192.82051282 , 4198.46153846 , 4188.71794872 , 4963.07692308 , 4074.35897436 , 4108.71794872 , 6.0095441032 , 0.0 , 0.0 , 0.0 , 0.0 , 0.0 , 

2016-10-05T18:16:58.065148 , 31.0 , 0.0 , 0.0 , 4210.76923077 , 4299.48717949 , 4298.46153846 , 4317.43589744 , 4201.02564103 , 4241.53846154 , 4252.30769231 , 4194.35897436 , 4191.79487179 , 4198.46153846 , 4168.71794872 , 4952.30769231 , 4048.20512821 , 4082.05128205 , 6.01694924154 , 0.0 , 0.0 , 0.0 , 0.0 , 0.0 , 

2016-10-05T18:16:58.066015 , 32.0 , 0.0 , 0.0 , 4205.12820513 , 4289.74358974 , 4292.82051282 , 4304.1025641 , 4201.53846154 , 4230.76923077 , 4248.71794872 , 4195.38461538 , 4197.43589744 , 4200.51282051 , 4167.17948718 , 4951.28205128 , 4055.8974359 , 4087.17948718 , 6.02433986654 , 0.0 , 0.0 , 0.0 , 0.0 , 0.0 , 

2016-10-05T18:16:58.066591 , 33.0 , 0.0 , 0.0 , 4200.0 , 4292.30769231 , 4295.8974359 , 4303.58974359 , 4199.48717949 , 4237.94871795 , 4254.35897436 , 4195.8974359 , 4198.97435897 , 4197.94871795 , 4155.38461538 , 4948.20512821 , 4063.58974359 , 4089.74358974 , 6.03173049154 , 0.0 , 0.0 , 0.0 , 0.0 , 0.0 , 

2016-10-05T18:16:58.067769 , 34.0 , 0.0 , 0.0 , 4190.25641026 , 4268.20512821 , 4281.02564103 , 4272.82051282 , 4189.74358974 , 4228.20512821 , 4237.43589744 , 4194.87179487 , 4193.33333333 , 4198.97435897 , 4155.8974359 , 4949.23076923 , 4096.92307692 , 4107.17948718 , 6.03906252279 , 0.0 , 0.0 , 0.0 , 0.0 , 0.0 , 

2016-10-05T18:16:58.076750 , 35.0 , 0.0 , 0.0 , 4197.43589744 , 4272.30769231 , 4281.53846154 , 4276.92307692 , 4195.8974359 , 4227.17948718 , 4241.53846154 , 4193.84615385 , 4190.76923077 , 4197.94871795 , 4147.69230769 , 4943.07692308 , 4085.12820513 , 4107.17948718 , 6.04639455404 , 0.0 , 0.0 , 0.0 , 0.0 , 0.0 , 

2016-10-05T18:16:58.078254 , 36.0 , 0.0 , 0.0 , 4193.84615385 , 4285.12820513 , 4282.56410256 , 4296.41025641 , 4191.79487179 , 4234.35897436 , 4249.23076923 , 4193.84615385 , 4196.92307692 , 4194.87179487 , 4156.92307692 , 4948.20512821 , 4067.69230769 , 4115.38461538 , 6.05375392904 , 0.0 , 0.0 , 0.0 , 0.0 , 0.0 , 

2016-10-05T18:16:58.078621 , 37.0 , 0.0 , 0.0 , 4193.33333333 , 4293.84615385 , 4278.97435897 , 4304.1025641 , 4194.35897436 , 4246.66666667 , 4258.97435897 , 4195.8974359 , 4197.43589744 , 4197.43589744 , 4166.15384615 , 4955.38461538 , 4069.74358974 , 4123.58974359 , 6.06111330404 , 0.0 , 0.0 , 0.0 , 0.0 , 0.0 , 

2016-10-05T18:16:58.080398 , 38.0 , 0.0 , 0.0 , 4201.02564103 , 4282.05128205 , 4268.71794872 , 4294.87179487 , 4198.97435897 , 4238.97435897 , 4255.8974359 , 4196.41025641 , 4192.82051282 , 4200.51282051 , 4169.74358974 , 4958.46153846 , 4080.0 , 4130.76923077 , 6.06847267904 , 0.0 , 0.0 , 0.0 , 0.0 , 0.0 , 

2016-10-05T18:16:58.081590 , 39.0 , 0.0 , 0.0 , 4204.61538462 , 4276.41025641 , 4263.58974359 , 4291.79487179 , 4196.92307692 , 4232.30769231 , 4249.23076923 , 4194.87179487 , 4195.8974359 , 4196.92307692 , 4173.84615385 , 4955.8974359 , 4081.53846154 , 4128.71794872 , 6.07584767904 , 0.0 , 0.0 , 0.0 , 0.0 , 0.0 , 

2016-10-05T18:16:58.083279 , 40.0 , 0.0 , 0.0 , 4209.23076923 , 4293.33333333 , 4274.35897436 , 4300.51282051 , 4207.69230769 , 4255.38461538 , 4267.69230769 , 4193.33333333 , 4198.97435897 , 4193.84615385 , 4173.84615385 , 4949.23076923 , 4074.35897436 , 4111.28205128 , 6.08322267904 , 0.0 , 0.0 , 0.0 , 0.0 , 0.0 , 

2016-10-05T18:16:58.083758 , 41.0 , 0.0 , 0.0 , 4196.41025641 , 4284.1025641 , 4261.02564103 , 4285.64102564 , 4198.97435897 , 4249.23076923 , 4265.64102564 , 4195.38461538 , 4196.92307692 , 4202.05128205 , 4191.79487179 , 4958.46153846 , 4088.20512821 , 4116.41025641 , 6.09051955404 , 0.0 , 0.0 , 0.0 , 0.0 , 0.0 , 

2016-10-05T18:16:58.084672 , 42.0 , 0.0 , 0.0 , 4204.61538462 , 4291.28205128 , 4270.25641026 , 4302.56410256 , 4195.8974359 , 4241.02564103 , 4262.56410256 , 4194.35897436 , 4193.33333333 , 4201.02564103 , 4187.17948718 , 4954.35897436 , 4076.41025641 , 4111.28205128 , 6.09788283529 , 0.0 , 0.0 , 0.0 , 0.0 , 0.0 , 

2016-10-05T18:16:58.085402 , 43.0 , 0.0 , 0.0 , 4211.28205128 , 4301.53846154 , 4275.8974359 , 4312.82051282 , 4198.46153846 , 4235.8974359 , 4258.97435897 , 4195.38461538 , 4195.8974359 , 4197.94871795 , 4183.58974359 , 4953.33333333 , 4076.92307692 , 4110.76923077 , 6.10518752279 , 0.0 , 0.0 , 0.0 , 0.0 , 0.0 , 

2016-10-05T18:16:58.086129 , 44.0 , 0.0 , 0.0 , 4218.46153846 , 4317.94871795 , 4301.53846154 , 4322.05128205 , 4207.69230769 , 4247.17948718 , 4278.97435897 , 4194.87179487 , 4197.94871795 , 4196.41025641 , 4153.84615385 , 4947.17948718 , 4050.25641026 , 4076.41025641 , 6.11258596029 , 0.0 , 0.0 , 0.0 , 0.0 , 0.0 , 

2016-10-05T18:16:58.086799 , 45.0 , 0.0 , 0.0 , 4192.30769231 , 4282.56410256 , 4288.20512821 , 4285.64102564 , 4182.56410256 , 4220.0 , 4253.84615385 , 4195.8974359 , 4196.92307692 , 4200.51282051 , 4161.53846154 , 4955.8974359 , 4069.23076923 , 4085.12820513 , 6.11990236654 , 0.0 , 0.0 , 0.0 , 0.0 , 0.0 , 

2016-10-05T18:16:58.087341 , 46.0 , 0.0 , 0.0 , 4189.23076923 , 4271.79487179 , 4287.17948718 , 4277.94871795 , 4184.1025641 , 4225.12820513 , 4247.69230769 , 4196.41025641 , 4192.82051282 , 4197.43589744 , 4140.0 , 4945.12820513 , 4074.87179487 , 4084.61538462 , 6.12730750488 , 0.0 , 0.0 , 0.0 , 0.0 , 0.0 , 

2016-10-05T18:16:58.087711 , 47.0 , 0.0 , 0.0 , 4187.17948718 , 4261.53846154 , 4277.94871795 , 4275.8974359 , 4180.51282051 , 4227.17948718 , 4237.43589744 , 4197.43589744 , 4193.33333333 , 4200.51282051 , 4141.02564103 , 4948.71794872 , 4095.8974359 , 4111.79487179 , 6.13471264322 , 0.0 , 0.0 , 0.0 , 0.0 , 0.0 , 

2016-10-05T18:16:58.088313 , 48.0 , 0.0 , 0.0 , 4205.12820513 , 4285.64102564 , 4302.05128205 , 4304.61538462 , 4192.30769231 , 4242.05128205 , 4246.66666667 , 4194.35897436 , 4195.38461538 , 4197.43589744 , 4141.53846154 , 4949.74358974 , 4073.33333333 , 4109.74358974 , 6.14211778156 , 0.0 , 0.0 , 0.0 , 0.0 , 0.0 , 

2016-10-05T18:16:58.088777 , 49.0 , 0.0 , 0.0 , 4189.74358974 , 4269.23076923 , 4275.38461538 , 4282.56410256 , 4186.15384615 , 4227.69230769 , 4232.30769231 , 4192.82051282 , 4195.38461538 , 4197.94871795 , 4169.74358974 , 4962.05128205 , 4089.23076923 , 4128.71794872 , 6.14947325031 , 0.0 , 0.0 , 0.0 , 0.0 , 0.0 , 

2016-10-05T18:16:58.090722 , 50.0 , 0.0 , 0.0 , 4193.84615385 , 4267.69230769 , 4265.12820513 , 4283.07692308 , 4197.94871795 , 4240.0 , 4249.74358974 , 4193.84615385 , 4195.38461538 , 4199.48717949 , 4160.0 , 4953.33333333 , 4080.0 , 4117.94871795 , 6.15687838865 , 0.0 , 0.0 , 0.0 , 0.0 , 0.0 , 

2016-10-05T18:16:58.091602 , 51.0 , 0.0 , 0.0 , 4194.87179487 , 4271.79487179 , 4265.64102564 , 4288.71794872 , 4198.46153846 , 4244.1025641 , 4257.43589744 , 4194.35897436 , 4196.41025641 , 4198.46153846 , 4168.20512821 , 4954.87179487 , 4070.76923077 , 4118.46153846 , 6.16428352699 , 0.0 , 0.0 , 0.0 , 0.0 , 0.0 , 

2016-10-05T18:16:58.092087 , 52.0 , 0.0 , 0.0 , 4201.02564103 , 4298.46153846 , 4279.48717949 , 4308.20512821 , 4209.74358974 , 4260.51282051 , 4273.33333333 , 4192.82051282 , 4195.38461538 , 4193.84615385 , 4173.33333333 , 4953.84615385 , 4050.76923077 , 4102.56410256 , 6.17168866533 , 0.0 , 0.0 , 0.0 , 0.0 , 0.0 , 

2016-10-05T18:16:58.092825 , 53.0 , 0.0 , 0.0 , 4194.87179487 , 4285.64102564 , 4273.84615385 , 4301.53846154 , 4198.97435897 , 4246.15384615 , 4255.8974359 , 4193.84615385 , 4195.38461538 , 4198.97435897 , 4182.05128205 , 4956.41025641 , 4079.48717949 , 4104.1025641 , 6.17902850908 , 0.0 , 0.0 , 0.0 , 0.0 , 0.0 , 

2016-10-05T18:16:58.093352 , 54.0 , 0.0 , 0.0 , 4209.23076923 , 4295.8974359 , 4285.64102564 , 4310.76923077 , 4200.0 , 4243.58974359 , 4258.46153846 , 4195.8974359 , 4197.94871795 , 4202.05128205 , 4173.33333333 , 4954.35897436 , 4074.87179487 , 4091.79487179 , 6.18636835283 , 0.0 , 0.0 , 0.0 , 0.0 , 0.0 , 

2016-10-05T18:16:58.094644 , 55.0 , 0.0 , 0.0 , 4207.17948718 , 4310.76923077 , 4289.23076923 , 4309.23076923 , 4200.51282051 , 4248.20512821 , 4264.1025641 , 4195.38461538 , 4198.46153846 , 4197.94871795 , 4168.20512821 , 4954.87179487 , 4063.07692308 , 4080.0 , 6.19360663408 , 0.0 , 0.0 , 0.0 , 0.0 , 0.0 , 

2016-10-05T18:16:58.095021 , 56.0 , 0.0 , 0.0 , 4188.71794872 , 4298.97435897 , 4278.46153846 , 4296.41025641 , 4189.23076923 , 4238.46153846 , 4253.84615385 , 4194.87179487 , 4197.94871795 , 4198.46153846 , 4164.1025641 , 4953.33333333 , 4081.53846154 , 4082.56410256 , 6.20084491533 , 0.0 , 0.0 , 0.0 , 0.0 , 0.0 , 

2016-10-05T18:16:58.099712 , 57.0 , 0.0 , 0.0 , 4188.71794872 , 4275.8974359 , 4279.48717949 , 4286.66666667 , 4183.07692308 , 4225.12820513 , 4245.12820513 , 4196.41025641 , 4196.92307692 , 4200.0 , 4162.56410256 , 4951.79487179 , 4090.76923077 , 4091.79487179 , 6.20808319658 , 0.0 , 0.0 , 0.0 , 0.0 , 0.0 , 

2016-10-05T18:16:58.113181 , 58.0 , 0.0 , 0.0 , 4196.92307692 , 4270.25641026 , 4282.56410256 , 4279.48717949 , 4190.25641026 , 4225.64102564 , 4247.17948718 , 4195.8974359 , 4194.87179487 , 4198.46153846 , 4161.53846154 , 4950.25641026 , 4082.05128205 , 4094.87179487 , 6.21538397783 , 0.0 , 0.0 , 0.0 , 0.0 , 0.0 , 

2016-10-05T18:16:58.113727 , 59.0 , 0.0 , 0.0 , 4201.53846154 , 4285.12820513 , 4293.84615385 , 4290.76923077 , 4202.56410256 , 4240.51282051 , 4252.82051282 , 4190.25641026 , 4194.35897436 , 4194.87179487 , 4145.12820513 , 4942.56410256 , 4083.07692308 , 4087.69230769 , 6.22268475908 , 0.0 , 0.0 , 0.0 , 0.0 , 0.0 , 

2016-10-05T18:16:58.114310 , 60.0 , 0.0 , 0.0 , 4188.20512821 , 4274.87179487 , 4285.12820513 , 4285.12820513 , 4193.84615385 , 4233.33333333 , 4243.58974359 , 4191.79487179 , 4197.94871795 , 4197.94871795 , 4152.30769231 , 4950.25641026 , 4090.25641026 , 4106.15384615 , 6.23004022783 , 0.0 , 0.0 , 0.0 , 0.0 , 0.0 , 

2016-10-05T18:16:58.118226 , 61.0 , 0.0 , 0.0 , 4193.84615385 , 4276.92307692 , 4286.15384615 , 4283.58974359 , 4200.51282051 , 4249.74358974 , 4262.56410256 , 4195.8974359 , 4198.46153846 , 4196.41025641 , 4150.76923077 , 4948.20512821 , 4069.23076923 , 4109.23076923 , 6.23733319658 , 0.0 , 0.0 , 0.0 , 0.0 , 0.0 , 

2016-10-05T18:16:58.119059 , 62.0 , 0.0 , 0.0 , 4187.69230769 , 4267.17948718 , 4262.05128205 , 4269.74358974 , 4193.84615385 , 4250.25641026 , 4259.48717949 , 4196.41025641 , 4196.92307692 , 4196.92307692 , 4160.51282051 , 4952.82051282 , 4100.51282051 , 4123.58974359 , 6.24467304033 , 0.0 , 0.0 , 0.0 , 0.0 , 0.0 , 

2016-10-05T18:16:58.119430 , 63.0 , 0.0 , 0.0 , 4204.1025641 , 4290.25641026 , 4274.35897436 , 4300.0 , 4208.71794872 , 4262.05128205 , 4276.41025641 , 4193.84615385 , 4194.35897436 , 4194.35897436 , 4153.84615385 , 4951.79487179 , 4078.97435897 , 4108.20512821 , 6.25199725908 , 0.0 , 0.0 , 0.0 , 0.0 , 0.0 , 

2016-10-05T18:16:58.119764 , 64.0 , 0.0 , 0.0 , 4200.0 , 4281.53846154 , 4270.76923077 , 4297.43589744 , 4201.53846154 , 4244.1025641 , 4265.12820513 , 4196.92307692 , 4195.8974359 , 4201.02564103 , 4182.56410256 , 4962.56410256 , 4064.61538462 , 4120.51282051 , 6.25932147783 , 0.0 , 0.0 , 0.0 , 0.0 , 0.0 , 

2016-10-05T18:16:58.126683 , 65.0 , 0.0 , 0.0 , 4208.20512821 , 4287.17948718 , 4280.51282051 , 4304.1025641 , 4198.97435897 , 4243.58974359 , 4262.05128205 , 4197.43589744 , 4198.46153846 , 4202.56410256 , 4176.41025641 , 4950.25641026 , 4061.53846154 , 4103.07692308 , 6.26657147783 , 0.0 , 0.0 , 0.0 , 0.0 , 0.0 , 

2016-10-05T18:16:58.127121 , 66.0 , 0.0 , 0.0 , 4205.64102564 , 4280.0 , 4263.58974359 , 4291.28205128 , 4194.35897436 , 4236.92307692 , 4257.43589744 , 4196.92307692 , 4197.43589744 , 4198.97435897 , 4187.17948718 , 4953.33333333 , 4092.82051282 , 4112.30769231 , 6.27386054033 , 0.0 , 0.0 , 0.0 , 0.0 , 0.0 , 

2016-10-05T18:16:58.127593 , 67.0 , 0.0 , 0.0 , 4217.94871795 , 4303.07692308 , 4282.05128205 , 4306.15384615 , 4212.82051282 , 4254.35897436 , 4280.0 , 4194.87179487 , 4194.35897436 , 4194.35897436 , 4177.43589744 , 4951.28205128 , 4060.0 , 4097.43589744 , 6.28114960283 , 0.0 , 0.0 , 0.0 , 0.0 , 0.0 , 

2016-10-05T18:16:58.129593 , 68.0 , 0.0 , 0.0 , 4200.51282051 , 4291.28205128 , 4280.0 , 4294.35897436 , 4190.25641026 , 4229.23076923 , 4251.79487179 , 4194.35897436 , 4197.43589744 , 4200.0 , 4175.8974359 , 4957.43589744 , 4072.30769231 , 4094.87179487 , 6.28848554033 , 0.0 , 0.0 , 0.0 , 0.0 , 0.0 , 

2016-10-05T18:16:58.130653 , 69.0 , 0.0 , 0.0 , 4201.02564103 , 4296.92307692 , 4294.35897436 , 4310.25641026 , 4182.05128205 , 4222.56410256 , 4251.79487179 , 4194.87179487 , 4197.94871795 , 4197.43589744 , 4144.1025641 , 4945.12820513 , 4072.82051282 , 4075.38461538 , 6.29580585283 , 0.0 , 0.0 , 0.0 , 0.0 , 0.0 , 

2016-10-05T18:16:58.131131 , 70.0 , 0.0 , 0.0 , 4191.28205128 , 4288.71794872 , 4290.25641026 , 4296.41025641 , 4186.66666667 , 4223.07692308 , 4249.23076923 , 4194.87179487 , 4195.8974359 , 4194.87179487 , 4142.56410256 , 4944.1025641 , 4073.84615385 , 4088.20512821 , 6.30312616533 , 0.0 , 0.0 , 0.0 , 0.0 , 0.0 , 

2016-10-05T18:16:58.131650 , 71.0 , 0.0 , 0.0 , 4192.30769231 , 4287.69230769 , 4294.35897436 , 4288.20512821 , 4203.58974359 , 4239.48717949 , 4249.74358974 , 4194.35897436 , 4195.8974359 , 4196.92307692 , 4140.51282051 , 4945.12820513 , 4061.02564103 , 4083.58974359 , 6.31049335283 , 0.0 , 0.0 , 0.0 , 0.0 , 0.0 , 

2016-10-05T18:16:58.132751 , 72.0 , 0.0 , 0.0 , 4189.23076923 , 4266.66666667 , 4286.15384615 , 4278.46153846 , 4193.33333333 , 4237.94871795 , 4246.15384615 , 4196.41025641 , 4197.94871795 , 4196.92307692 , 4144.61538462 , 4948.71794872 , 4076.92307692 , 4094.35897436 , 6.31786054033 , 0.0 , 0.0 , 0.0 , 0.0 , 0.0 , 

2016-10-05T18:16:58.133624 , 73.0 , 0.0 , 0.0 , 4191.79487179 , 4264.61538462 , 4287.17948718 , 4282.56410256 , 4180.0 , 4234.87179487 , 4248.71794872 , 4197.43589744 , 4196.92307692 , 4195.8974359 , 4147.17948718 , 4949.74358974 , 4068.20512821 , 4109.23076923 , 6.32522772783 , 0.0 , 0.0 , 0.0 , 0.0 , 0.0 , 

2016-10-05T18:16:58.133996 , 74.0 , 0.0 , 0.0 , 4187.17948718 , 4263.58974359 , 4278.97435897 , 4277.94871795 , 4177.43589744 , 4227.17948718 , 4237.94871795 , 4194.87179487 , 4196.41025641 , 4197.43589744 , 4158.46153846 , 4956.41025641 , 4069.74358974 , 4118.46153846 , 6.33259491533 , 0.0 , 0.0 , 0.0 , 0.0 , 0.0 , 

2016-10-05T18:16:58.134323 , 75.0 , 0.0 , 0.0 , 4186.15384615 , 4265.12820513 , 4261.53846154 , 4278.46153846 , 4195.8974359 , 4241.53846154 , 4253.33333333 , 4196.41025641 , 4197.94871795 , 4196.41025641 , 4161.53846154 , 4955.8974359 , 4091.79487179 , 4114.35897436 , 6.33996210283 , 0.0 , 0.0 , 0.0 , 0.0 , 0.0 , 

2016-10-05T18:16:58.134646 , 76.0 , 0.0 , 0.0 , 4191.79487179 , 4277.94871795 , 4267.17948718 , 4292.82051282 , 4206.15384615 , 4261.53846154 , 4277.94871795 , 4195.38461538 , 4196.92307692 , 4191.28205128 , 4161.53846154 , 4950.25641026 , 4083.58974359 , 4108.71794872 , 6.34729022783 , 0.0 , 0.0 , 0.0 , 0.0 , 0.0 , 

2016-10-05T18:16:58.135152 , 77.0 , 0.0 , 0.0 , 4190.25641026 , 4281.53846154 , 4271.79487179 , 4293.84615385 , 4191.79487179 , 4241.02564103 , 4254.35897436 , 4193.33333333 , 4197.43589744 , 4197.43589744 , 4184.1025641 , 4956.92307692 , 4060.51282051 , 4113.33333333 , 6.35466913408 , 0.0 , 0.0 , 0.0 , 0.0 , 0.0 , 

2016-10-05T18:16:58.136085 , 78.0 , 0.0 , 0.0 , 4202.56410256 , 4292.30769231 , 4282.05128205 , 4306.15384615 , 4197.94871795 , 4236.92307692 , 4251.79487179 , 4193.33333333 , 4197.94871795 , 4201.53846154 , 4182.05128205 , 4954.87179487 , 4063.58974359 , 4101.02564103 , 6.36205194658 , 0.0 , 0.0 , 0.0 , 0.0 , 0.0 , 

2016-10-05T18:16:58.136679 , 79.0 , 0.0 , 0.0 , 4203.07692308 , 4295.8974359 , 4281.53846154 , 4307.17948718 , 4204.1025641 , 4248.20512821 , 4271.28205128 , 4195.38461538 , 4196.41025641 , 4198.46153846 , 4173.84615385 , 4953.33333333 , 4082.56410256 , 4095.8974359 , 6.36939960283 , 0.0 , 0.0 , 0.0 , 0.0 , 0.0 , 

2016-10-05T18:16:58.137250 , 80.0 , 0.0 , 0.0 , 4210.76923077 , 4313.84615385 , 4312.82051282 , 4321.53846154 , 4208.20512821 , 4257.94871795 , 4277.43589744 , 4193.84615385 , 4195.38461538 , 4192.30769231 , 4152.82051282 , 4946.66666667 , 4039.48717949 , 4067.69230769 , 6.37674725908 , 0.0 , 0.0 , 0.0 , 0.0 , 0.0 , 

2016-10-05T18:16:58.138037 , 81.0 , 0.0 , 0.0 , 4196.92307692 , 4300.51282051 , 4304.1025641 , 4302.56410256 , 4192.30769231 , 4229.74358974 , 4241.53846154 , 4194.35897436 , 4197.94871795 , 4198.46153846 , 4164.61538462 , 4955.8974359 , 4054.35897436 , 4080.51282051 , 6.38409491533 , 0.0 , 0.0 , 0.0 , 0.0 , 0.0 , 

2016-10-05T18:16:58.138571 , 82.0 , 0.0 , 0.0 , 4201.02564103 , 4303.58974359 , 4302.56410256 , 4303.58974359 , 4198.46153846 , 4242.05128205 , 4263.58974359 , 4193.33333333 , 4195.38461538 , 4198.46153846 , 4149.23076923 , 4946.66666667 , 4077.43589744 , 4084.61538462 , 6.39142304033 , 0.0 , 0.0 , 0.0 , 0.0 , 0.0 , 

2016-10-05T18:16:58.139154 , 83.0 , 0.0 , 0.0 , 4188.71794872 , 4271.79487179 , 4281.53846154 , 4278.97435897 , 4180.0 , 4234.87179487 , 4262.05128205 , 4194.87179487 , 4194.35897436 , 4198.46153846 , 4159.48717949 , 4951.79487179 , 4102.56410256 , 4112.30769231 , 6.39875116533 , 0.0 , 0.0 , 0.0 , 0.0 , 0.0 , 

2016-10-05T18:16:58.140474 , 84.0 , 0.0 , 0.0 , 4192.82051282 , 4266.66666667 , 4288.20512821 , 4276.92307692 , 4184.61538462 , 4236.92307692 , 4249.74358974 , 4194.87179487 , 4195.8974359 , 4194.87179487 , 4150.76923077 , 4949.23076923 , 4075.8974359 , 4105.12820513 , 6.40613788408 , 0.0 , 0.0 , 0.0 , 0.0 , 0.0 , 

2016-10-05T18:16:58.140887 , 85.0 , 0.0 , 0.0 , 4178.97435897 , 4256.41025641 , 4274.35897436 , 4263.58974359 , 4188.20512821 , 4229.23076923 , 4234.35897436 , 4194.87179487 , 4194.35897436 , 4193.84615385 , 4160.0 , 4954.35897436 , 4085.64102564 , 4115.38461538 , 6.41348554033 , 0.0 , 0.0 , 0.0 , 0.0 , 0.0 , 

2016-10-05T18:16:58.142139 , 86.0 , 0.0 , 0.0 , 4190.76923077 , 4275.38461538 , 4286.15384615 , 4287.17948718 , 4200.0 , 4248.20512821 , 4260.51282051 , 4193.84615385 , 4190.25641026 , 4191.79487179 , 4148.71794872 , 4944.1025641 , 4065.64102564 , 4103.58974359 , 6.42075507158 , 0.0 , 0.0 , 0.0 , 0.0 , 0.0 , 

2016-10-05T18:16:58.142492 , 87.0 , 0.0 , 0.0 , 4191.28205128 , 4268.71794872 , 4274.35897436 , 4287.69230769 , 4184.61538462 , 4240.0 , 4252.30769231 , 4195.8974359 , 4193.33333333 , 4197.43589744 , 4164.61538462 , 4949.74358974 , 4076.41025641 , 4120.51282051 , 6.42802460283 , 0.0 , 0.0 , 0.0 , 0.0 , 0.0 , 

2016-10-05T18:16:58.143502 , 88.0 , 0.0 , 0.0 , 4202.05128205 , 4282.56410256 , 4272.82051282 , 4296.92307692 , 4200.51282051 , 4256.92307692 , 4269.74358974 , 4195.8974359 , 4195.38461538 , 4196.41025641 , 4162.56410256 , 4951.28205128 , 4067.69230769 , 4116.92307692 , 6.43529413408 , 0.0 , 0.0 , 0.0 , 0.0 , 0.0 , 

2016-10-05T18:16:58.143914 , 89.0 , 0.0 , 0.0 , 4200.51282051 , 4280.51282051 , 4261.02564103 , 4285.64102564 , 4209.23076923 , 4259.48717949 , 4272.30769231 , 4192.30769231 , 4194.87179487 , 4194.87179487 , 4178.46153846 , 4960.0 , 4073.84615385 , 4118.97435897 , 6.44260272783 , 0.0 , 0.0 , 0.0 , 0.0 , 0.0 , 

2016-10-05T18:16:58.144250 , 90.0 , 0.0 , 0.0 , 4212.30769231 , 4291.28205128 , 4277.94871795 , 4307.17948718 , 4205.12820513 , 4251.28205128 , 4262.56410256 , 4191.79487179 , 4195.8974359 , 4198.97435897 , 4178.97435897 , 4958.97435897 , 4060.51282051 , 4098.97435897 , 6.45000786617 , 0.0 , 0.0 , 0.0 , 0.0 , 0.0 , 

2016-10-05T18:16:58.144607 , 91.0 , 0.0 , 0.0 , 4204.61538462 , 4287.17948718 , 4289.23076923 , 4314.35897436 , 4191.79487179 , 4237.43589744 , 4248.71794872 , 4193.84615385 , 4198.46153846 , 4204.1025641 , 4173.33333333 , 4958.46153846 , 4064.1025641 , 4090.25641026 , 6.45740239742 , 0.0 , 0.0 , 0.0 , 0.0 , 0.0 , 

2016-10-05T18:16:58.145061 , 92.0 , 0.0 , 0.0 , 4194.87179487 , 4289.23076923 , 4289.23076923 , 4303.07692308 , 4193.33333333 , 4242.56410256 , 4260.51282051 , 4193.33333333 , 4197.94871795 , 4200.51282051 , 4170.25641026 , 4957.43589744 , 4062.05128205 , 4086.66666667 , 6.46479692867 , 0.0 , 0.0 , 0.0 , 0.0 , 0.0 , 

2016-10-05T18:16:58.145416 , 93.0 , 0.0 , 0.0 , 4196.92307692 , 4287.69230769 , 4281.02564103 , 4285.12820513 , 4196.92307692 , 4243.58974359 , 4257.43589744 , 4192.30769231 , 4197.43589744 , 4198.97435897 , 4175.38461538 , 4957.94871795 , 4068.71794872 , 4088.20512821 , 6.47219145992 , 0.0 , 0.0 , 0.0 , 0.0 , 0.0 , 

2016-10-05T18:16:58.145751 , 94.0 , 0.0 , 0.0 , 4203.58974359 , 4287.17948718 , 4286.66666667 , 4290.76923077 , 4199.48717949 , 4234.87179487 , 4245.64102564 , 4194.87179487 , 4197.94871795 , 4203.07692308 , 4164.61538462 , 4954.35897436 , 4084.1025641 , 4086.66666667 , 6.47959659826 , 0.0 , 0.0 , 0.0 , 0.0 , 0.0 , 

2016-10-05T18:16:58.146070 , 95.0 , 0.0 , 0.0 , 4203.07692308 , 4288.20512821 , 4309.74358974 , 4309.74358974 , 4195.38461538 , 4227.69230769 , 4245.12820513 , 4194.87179487 , 4193.84615385 , 4201.02564103 , 4143.58974359 , 4946.66666667 , 4076.92307692 , 4082.05128205 , 6.48695597326 , 0.0 , 0.0 , 0.0 , 0.0 , 0.0 , 

2016-10-05T18:16:58.146463 , 96.0 , 0.0 , 0.0 , 4188.20512821 , 4267.69230769 , 4302.05128205 , 4291.79487179 , 4176.41025641 , 4212.82051282 , 4232.82051282 , 4193.33333333 , 4191.28205128 , 4198.46153846 , 4152.30769231 , 4949.74358974 , 4064.1025641 , 4096.41025641 , 6.49431534826 , 0.0 , 0.0 , 0.0 , 0.0 , 0.0 , 

2016-10-05T18:16:58.146863 , 97.0 , 0.0 , 0.0 , 4192.30769231 , 4266.66666667 , 4294.87179487 , 4278.97435897 , 4188.20512821 , 4231.79487179 , 4242.56410256 , 4193.33333333 , 4194.35897436 , 4194.87179487 , 4153.33333333 , 4945.64102564 , 4058.97435897 , 4100.0 , 6.50164347326 , 0.0 , 0.0 , 0.0 , 0.0 , 0.0 , 

2016-10-05T18:16:58.147196 , 98.0 , 0.0 , 0.0 , 4189.23076923 , 4267.69230769 , 4278.46153846 , 4271.28205128 , 4198.97435897 , 4246.15384615 , 4254.35897436 , 4196.92307692 , 4195.8974359 , 4195.8974359 , 4165.64102564 , 4951.28205128 , 4088.71794872 , 4124.1025641 , 6.50897159826 , 0.0 , 0.0 , 0.0 , 0.0 , 0.0 , 

2016-10-05T18:16:58.147531 , 99.0 , 0.0 , 0.0 , 4196.41025641 , 4286.15384615 , 4286.15384615 , 4292.82051282 , 4204.61538462 , 4259.48717949 , 4277.43589744 , 4195.38461538 , 4193.84615385 , 4193.33333333 , 4151.79487179 , 4946.66666667 , 4070.25641026 , 4116.41025641 , 6.51636612951 , 0.0 , 0.0 , 0.0 , 0.0 , 0.0 , 

2016-10-05T18:16:58.147897 , 100.0 , 0.0 , 0.0 , 4187.69230769 , 4268.71794872 , 4262.05128205 , 4278.97435897 , 4187.17948718 , 4242.05128205 , 4260.51282051 , 4193.84615385 , 4195.8974359 , 4196.92307692 , 4161.02564103 , 4952.82051282 , 4078.97435897 , 4115.8974359 , 6.52368253576 , 0.0 , 0.0 , 0.0 , 0.0 , 0.0 , 

2016-10-05T18:16:58.148245 , 101.0 , 0.0 , 0.0 , 4201.53846154 , 4279.48717949 , 4267.17948718 , 4289.23076923 , 4203.58974359 , 4255.8974359 , 4268.71794872 , 4192.82051282 , 4196.92307692 , 4195.8974359 , 4161.53846154 , 4950.25641026 , 4076.92307692 , 4100.0 , 6.53106144201 , 0.0 , 0.0 , 0.0 , 0.0 , 0.0 , 

2016-10-05T18:16:58.148582 , 102.0 , 0.0 , 0.0 , 4194.87179487 , 4276.92307692 , 4254.35897436 , 4277.43589744 , 4206.66666667 , 4252.82051282 , 4265.64102564 , 4195.38461538 , 4198.46153846 , 4200.0 , 4195.38461538 , 4961.53846154 , 4092.82051282 , 4125.64102564 , 6.53840128576 , 0.0 , 0.0 , 0.0 , 0.0 , 0.0 , 

2016-10-05T18:16:58.148916 , 103.0 , 0.0 , 0.0 , 4207.69230769 , 4303.07692308 , 4268.71794872 , 4297.43589744 , 4216.41025641 , 4261.53846154 , 4277.43589744 , 4194.35897436 , 4199.48717949 , 4200.0 , 4183.58974359 , 4954.35897436 , 4069.74358974 , 4108.20512821 , 6.54576456701 , 0.0 , 0.0 , 0.0 , 0.0 , 0.0 , 

2016-10-05T18:16:58.149291 , 104.0 , 0.0 , 0.0 , 4205.12820513 , 4297.43589744 , 4270.25641026 , 4303.58974359 , 4199.48717949 , 4238.46153846 , 4252.82051282 , 4194.35897436 , 4197.94871795 , 4201.02564103 , 4176.92307692 , 4955.8974359 , 4081.53846154 , 4095.8974359 , 6.55301847326 , 0.0 , 0.0 , 0.0 , 0.0 , 0.0 , 

2016-10-05T18:16:58.149647 , 105.0 , 0.0 , 0.0 , 4212.82051282 , 4302.05128205 , 4294.35897436 , 4319.48717949 , 4197.94871795 , 4234.35897436 , 4250.25641026 , 4194.35897436 , 4196.41025641 , 4200.51282051 , 4157.43589744 , 4948.20512821 , 4057.43589744 , 4074.35897436 , 6.56031925451 , 0.0 , 0.0 , 0.0 , 0.0 , 0.0 , 

2016-10-05T18:16:58.150192 , 106.0 , 0.0 , 0.0 , 4193.84615385 , 4286.66666667 , 4285.64102564 , 4294.87179487 , 4186.66666667 , 4226.66666667 , 4243.58974359 , 4193.84615385 , 4197.94871795 , 4201.53846154 , 4163.07692308 , 4947.69230769 , 4059.48717949 , 4085.12820513 , 6.56766300451 , 0.0 , 0.0 , 0.0 , 0.0 , 0.0 , 

2016-10-05T18:16:58.150731 , 107.0 , 0.0 , 0.0 , 4196.92307692 , 4298.97435897 , 4293.84615385 , 4302.05128205 , 4194.87179487 , 4244.1025641 , 4263.07692308 , 4194.35897436 , 4195.8974359 , 4196.41025641 , 4138.46153846 , 4938.46153846 , 4063.58974359 , 4073.33333333 , 6.57494034826 , 0.0 , 0.0 , 0.0 , 0.0 , 0.0 , 

2016-10-05T18:16:58.151164 , 108.0 , 0.0 , 0.0 , 4197.94871795 , 4286.15384615 , 4288.20512821 , 4291.28205128 , 4189.74358974 , 4232.82051282 , 4251.79487179 , 4197.43589744 , 4194.87179487 , 4195.38461538 , 4137.94871795 , 4945.64102564 , 4094.87179487 , 4094.87179487 , 6.58227237951 , 0.0 , 0.0 , 0.0 , 0.0 , 0.0 , 

2016-10-05T18:16:58.152204 , 109.0 , 0.0 , 0.0 , 4198.46153846 , 4272.30769231 , 4284.61538462 , 4276.41025641 , 4186.66666667 , 4226.66666667 , 4241.53846154 , 4200.0 , 4195.38461538 , 4198.46153846 , 4149.23076923 , 4950.25641026 , 4083.58974359 , 4111.28205128 , 6.58960441076 , 0.0 , 0.0 , 0.0 , 0.0 , 0.0 , 

2016-10-05T18:16:58.160107 , 110.0 , 0.0 , 0.0 , 4185.64102564 , 4258.46153846 , 4272.30769231 , 4263.07692308 , 4183.58974359 , 4232.30769231 , 4246.66666667 , 4197.94871795 , 4195.8974359 , 4197.94871795 , 4157.43589744 , 4950.76923077 , 4081.53846154 , 4115.8974359 , 6.59692081701 , 0.0 , 0.0 , 0.0 , 0.0 , 0.0 , 

2016-10-05T18:16:58.160787 , 111.0 , 0.0 , 0.0 , 4185.12820513 , 4263.07692308 , 4272.30769231 , 4277.43589744 , 4190.25641026 , 4244.61538462 , 4263.58974359 , 4195.38461538 , 4196.92307692 , 4196.41025641 , 4151.28205128 , 4947.69230769 , 4084.1025641 , 4113.84615385 , 6.60429972326 , 0.0 , 0.0 , 0.0 , 0.0 , 0.0 , 

2016-10-05T18:16:58.161324 , 112.0 , 0.0 , 0.0 , 4190.76923077 , 4267.17948718 , 4278.46153846 , 4294.35897436 , 4191.28205128 , 4243.58974359 , 4259.48717949 , 4194.35897436 , 4195.8974359 , 4198.46153846 , 4157.43589744 , 4951.79487179 , 4066.15384615 , 4120.0 , 6.61161612951 , 0.0 , 0.0 , 0.0 , 0.0 , 0.0 , 

2016-10-05T18:16:58.161765 , 113.0 , 0.0 , 0.0 , 4193.33333333 , 4273.33333333 , 4270.76923077 , 4295.38461538 , 4193.84615385 , 4244.61538462 , 4256.41025641 , 4195.38461538 , 4192.30769231 , 4198.46153846 , 4178.46153846 , 4956.41025641 , 4051.79487179 , 4118.97435897 , 6.61893253576 , 0.0 , 0.0 , 0.0 , 0.0 , 0.0 , 

2016-10-05T18:16:58.162151 , 114.0 , 0.0 , 0.0 , 4200.51282051 , 4291.28205128 , 4276.92307692 , 4301.53846154 , 4206.66666667 , 4265.64102564 , 4278.46153846 , 4193.84615385 , 4194.35897436 , 4194.87179487 , 4178.97435897 , 4952.30769231 , 4062.05128205 , 4101.02564103 , 6.62622550451 , 0.0 , 0.0 , 0.0 , 0.0 , 0.0 , 

2016-10-05T18:16:58.162528 , 115.0 , 0.0 , 0.0 , 4194.87179487 , 4290.25641026 , 4279.48717949 , 4297.43589744 , 4201.02564103 , 4262.05128205 , 4278.46153846 , 4194.35897436 , 4200.0 , 4200.0 , 4180.51282051 , 4957.43589744 , 4082.56410256 , 4103.07692308 , 6.63356144201 , 0.0 , 0.0 , 0.0 , 0.0 , 0.0 , 

2016-10-05T18:16:58.162928 , 116.0 , 0.0 , 0.0 , 4207.69230769 , 4301.53846154 , 4296.41025641 , 4315.38461538 , 4206.15384615 , 4254.35897436 , 4267.69230769 , 4193.84615385 , 4200.51282051 , 4203.58974359 , 4170.25641026 , 4954.87179487 , 4066.15384615 , 4091.28205128 , 6.64089737951 , 0.0 , 0.0 , 0.0 , 0.0 , 0.0 , 

2016-10-05T18:16:58.163334 , 117.0 , 0.0 , 0.0 , 4203.58974359 , 4294.87179487 , 4285.64102564 , 4312.82051282 , 4197.94871795 , 4234.87179487 , 4249.74358974 , 4193.84615385 , 4199.48717949 , 4205.12820513 , 4178.46153846 , 4958.46153846 , 4071.79487179 , 4096.41025641 , 6.64921378576 , 0.0 , 0.0 , 0.0 , 0.0 , 0.0 , 

2016-10-05T18:16:58.163790 , 118.0 , 0.0 , 0.0 , 4208.20512821 , 4306.15384615 , 4305.64102564 , 4327.17948718 , 4199.48717949 , 4247.17948718 , 4271.28205128 , 4192.82051282 , 4197.43589744 , 4198.97435897 , 4151.79487179 , 4946.15384615 , 4042.56410256 , 4073.33333333 , 6.65758487951 , 0.0 , 0.0 , 0.0 , 0.0 , 0.0 , 

2016-10-05T18:16:58.164188 , 119.0 , 0.0 , 0.0 , 4194.35897436 , 4290.25641026 , 4293.33333333 , 4300.0 , 4191.28205128 , 4234.35897436 , 4256.92307692 , 4195.38461538 , 4194.87179487 , 4199.48717949 , 4154.35897436 , 4950.25641026 , 4064.61538462 , 4087.69230769 , 6.66599001785 , 0.0 , 0.0 , 0.0 , 0.0 , 0.0 , 

2016-10-05T18:16:58.164498 , 120.0 , 0.0 , 0.0 , 4196.92307692 , 4284.61538462 , 4285.64102564 , 4284.61538462 , 4198.97435897 , 4237.94871795 , 4247.17948718 , 4194.87179487 , 4193.33333333 , 4197.43589744 , 4152.30769231 , 4947.69230769 , 4086.66666667 , 4099.48717949 , 6.67439515619 , 0.0 , 0.0 , 0.0 , 0.0 , 0.0 , 

2016-10-05T18:16:58.164827 , 121.0 , 0.0 , 0.0 , 4189.23076923 , 4263.07692308 , 4271.79487179 , 4268.20512821 , 4189.23076923 , 4227.69230769 , 4235.38461538 , 4192.82051282 , 4193.33333333 , 4201.02564103 , 4165.12820513 , 4953.84615385 , 4097.43589744 , 4126.15384615 , 6.68280029453 , 0.0 , 0.0 , 0.0 , 0.0 , 0.0 , 

2016-10-05T18:16:58.165389 , 122.0 , 0.0 , 0.0 , 4203.07692308 , 4286.66666667 , 4295.38461538 , 4291.79487179 , 4201.53846154 , 4240.51282051 , 4259.48717949 , 4192.82051282 , 4191.79487179 , 4196.41025641 , 4137.43589744 , 4941.53846154 , 4056.41025641 , 4102.05128205 , 6.69120263828 , 0.0 , 0.0 , 0.0 , 0.0 , 0.0 , 

2016-10-05T18:16:58.165930 , 123.0 , 0.0 , 0.0 , 4187.69230769 , 4274.35897436 , 4277.43589744 , 4274.35897436 , 4185.64102564 , 4225.12820513 , 4244.1025641 , 4196.41025641 , 4195.8974359 , 4195.38461538 , 4144.61538462 , 4948.71794872 , 4080.0 , 4107.17948718 , 6.69960498203 , 0.0 , 0.0 , 0.0 , 0.0 , 0.0 , 

2016-10-05T18:16:58.166615 , 124.0 , 0.0 , 0.0 , 4191.79487179 , 4276.41025641 , 4275.8974359 , 4283.58974359 , 4190.25641026 , 4239.48717949 , 4254.35897436 , 4196.41025641 , 4201.02564103 , 4196.41025641 , 4151.79487179 , 4950.76923077 , 4075.8974359 , 4107.69230769 , 6.70801012037 , 0.0 , 0.0 , 0.0 , 0.0 , 0.0 , 

2016-10-05T18:16:58.167495 , 125.0 , 0.0 , 0.0 , 4191.28205128 , 4276.92307692 , 4268.71794872 , 4290.76923077 , 4197.43589744 , 4244.61538462 , 4260.51282051 , 4194.87179487 , 4197.43589744 , 4200.0 , 4174.35897436 , 4955.38461538 , 4072.82051282 , 4123.07692308 , 6.71636558912 , 0.0 , 0.0 , 0.0 , 0.0 , 0.0 , 

2016-10-05T18:16:58.168594 , 126.0 , 0.0 , 0.0 , 4196.41025641 , 4293.84615385 , 4272.82051282 , 4301.53846154 , 4204.1025641 , 4254.87179487 , 4273.33333333 , 4194.87179487 , 4193.33333333 , 4196.92307692 , 4166.66666667 , 4947.17948718 , 4064.1025641 , 4106.15384615 , 6.72472105787 , 0.0 , 0.0 , 0.0 , 0.0 , 0.0 , 

2016-10-05T18:16:58.169804 , 127.0 , 0.0 , 0.0 , 4196.92307692 , 4285.12820513 , 4270.25641026 , 4292.30769231 , 4193.84615385 , 4246.66666667 , 4266.66666667 , 4195.8974359 , 4194.87179487 , 4194.87179487 , 4173.33333333 , 4948.71794872 , 4078.97435897 , 4103.07692308 , 6.73308433912 , 0.0 , 0.0 , 0.0 , 0.0 , 0.0 , 

